Filename	LLM_EP0901_0%01_Oscillatory temperature sweep
Instrument name	5333-0626
Operator	
rundate	06/05/2025
Sample name	LLM_EP0901_0%01_Oscillatory temperature sweep
Geometry name	8.0mm parallel plate, UPP Stainless steel  - 119113 new 30 11 22
Procedure name	Sample
	Temperature ramp
	Temperature ramp
	Temperature ramp
	Temperature ramp
	Flow sweep
	Flow sweep
	Flow sweep
	Flow sweep
	Flow sweep
	Flow sweep
	Axial
	Sample
proceduresegments	Temperature ramp#Temperature ramp#Temperature ramp#Temperature ramp#Flow sweep#Flow sweep#Flow sweep#Flow sweep#Flow sweep#Flow sweep#Axial
[step]
Temperature ramp - 1
Storage modulus	Loss modulus	Tan(delta)	Angular frequency	Oscillation torque	Step time	Temperature	Raw phase	Oscillation displacement
MPa	MPa		rad/s	µN.m	s	°C	°	rad
-1.10707e-4	1.52926e-3	-13.8136	10.0001	0.251017	6.12356	109.73	167.624	8.74880e-5
-1.01197e-4	1.55599e-3	-15.3758	10.0001	0.250802	12.9032	109.36	167.398	8.74561e-5
-1.20072e-4	1.67292e-3	-13.9326	10.0001	0.251828	19.7923	109.20	166.519	8.72656e-5
-1.05208e-4	1.78143e-3	-16.9324	10.0001	0.252244	26.6969	108.89	165.651	8.72685e-5
-1.20492e-4	1.83492e-3	-15.2285	10.0001	0.253638	33.4609	108.67	165.270	8.74075e-5
-1.25505e-4	1.99029e-3	-15.8583	10.0001	0.254407	40.2562	108.46	164.094	8.71186e-5
-1.17246e-4	2.13560e-3	-18.2146	10.0001	0.255527	47.0515	108.22	162.978	8.71029e-5
-1.10065e-4	2.23648e-3	-20.3196	10.0001	0.256857	53.6437	107.94	162.208	8.72776e-5
-1.17593e-4	2.37480e-3	-20.1951	10.0001	0.258378	60.4858	107.78	161.201	8.71916e-5
-1.18716e-4	2.53453e-3	-21.3496	10.0001	0.259898	67.3858	107.57	160.037	8.70662e-5
-1.29374e-4	2.65230e-3	-20.5010	10.0001	0.262273	74.1846	107.29	159.216	8.72619e-5
-1.12548e-4	2.84525e-3	-25.2803	10.0001	0.263554	81.0812	107.11	157.797	8.70469e-5
-1.09312e-4	3.05945e-3	-27.9883	10.0001	0.266049	87.7530	106.89	156.294	8.69405e-5
-1.40331e-4	3.20417e-3	-22.8330	10.0001	0.269939	94.7200	106.61	155.403	8.72103e-5
-1.22304e-4	3.34963e-3	-27.3878	10.0001	0.271093	101.460	106.42	154.367	8.70681e-5
-1.00851e-4	3.52169e-3	-34.9199	10.0001	0.273063	108.439	106.22	153.159	8.70618e-5
-1.51435e-4	3.73848e-3	-24.6870	10.0001	0.278268	114.595	105.97	151.929	8.71042e-5
-1.23417e-4	3.90947e-3	-31.6770	10.0001	0.279908	121.564	105.70	150.754	8.69884e-5
-1.10409e-4	4.14307e-3	-37.5249	10.0001	0.283271	128.336	105.51	149.270	8.68894e-5
-1.27687e-4	4.33020e-3	-33.9127	10.0001	0.287797	135.175	105.31	148.209	8.70746e-5
-1.48257e-4	4.58682e-3	-30.9382	10.0001	0.292726	142.065	105.10	146.790	8.69241e-5
-1.44690e-4	4.81144e-3	-33.2533	10.0001	0.297042	148.251	104.82	145.512	8.69396e-5
-1.16364e-4	5.10044e-3	-43.8318	10.0001	0.301351	155.141	104.62	143.825	8.67303e-5
-1.32644e-4	5.38674e-3	-40.6105	10.0001	0.308141	162.017	104.40	142.386	8.68249e-5
-1.30095e-4	5.71673e-3	-43.9428	10.0001	0.314685	168.893	104.18	140.716	8.66715e-5
-1.35933e-4	5.96015e-3	-43.8464	10.0001	0.321216	175.664	103.95	139.566	8.69279e-5
-1.42839e-4	6.28785e-3	-44.0206	10.0001	0.328123	182.530	103.75	138.074	8.67107e-5
-1.36419e-4	6.64414e-3	-48.7038	10.0001	0.336027	189.252	103.52	136.473	8.66168e-5
-1.35388e-4	7.03738e-3	-51.9795	10.0001	0.345159	196.151	103.25	134.823	8.65133e-5
-1.07308e-4	7.40208e-3	-68.9796	10.0001	0.353789	203.005	103.03	133.263	8.65617e-5
-1.76021e-4	7.84929e-3	-44.5928	10.0001	0.366454	209.801	102.79	131.868	8.64622e-5
-1.37270e-4	8.33209e-3	-60.6985	10.0001	0.377343	216.642	102.59	130.018	8.62536e-5
-1.31471e-4	8.88472e-3	-67.5792	10.0001	0.391545	223.501	102.37	128.194	8.61334e-5
-1.34593e-4	9.25892e-3	-68.7921	10.0001	0.404131	229.638	102.12	127.062	8.66125e-5
-1.41705e-4	9.73757e-3	-68.7172	10.0001	0.416571	236.595	101.93	125.713	8.63840e-5
-1.33265e-4	0.0103574	-77.7207	10.0001	0.432233	243.464	101.67	124.021	8.60145e-5
-1.09239e-4	0.0109454	-100.197	10.0001	0.449174	250.220	101.44	122.482	8.60946e-5
-1.06231e-4	0.0115009	-108.263	10.0001	0.466057	257.123	101.26	121.199	8.62017e-5
-1.06634e-4	0.0121279	-113.734	10.0001	0.483789	263.987	100.97	119.872	8.60313e-5
-1.09986e-4	0.0130016	-118.212	10.0001	0.507302	270.793	100.75	118.192	8.55291e-5
-1.15224e-4	0.0137522	-119.352	10.0001	0.532164	277.622	100.58	116.890	8.58291e-5
-9.82096e-5	0.0145450	-148.101	10.0001	0.555708	284.443	100.29	115.563	8.57184e-5
-1.26040e-4	0.0154148	-122.301	10.0001	0.583194	291.308	100.08	114.377	8.57031e-5
-9.46297e-5	0.0162961	-172.209	10.0001	0.610508	298.074	99.84	113.107	8.56932e-5
-9.94613e-5	0.0171906	-172.837	10.0001	0.639786	304.941	99.62	112.037	8.57961e-5
-7.40666e-5	0.0183630	-247.925	10.0001	0.673689	311.829	99.40	110.683	8.53578e-5
-8.71270e-5	0.0197824	-227.052	10.0001	0.717570	318.610	99.20	109.345	8.51063e-5
-8.94743e-5	0.0210342	-235.086	10.0001	0.761927	325.311	98.91	108.280	8.55416e-5
-5.55581e-5	0.0224132	-403.419	10.0001	0.805943	332.033	98.75	107.144	8.54499e-5
-7.74163e-5	0.0239299	-309.107	10.0001	0.855640	338.881	98.54	106.164	8.54089e-5
-9.28123e-5	0.0252233	-271.766	10.0001	0.902699	345.733	98.24	105.408	8.58088e-5
-8.37181e-5	0.0265649	-317.313	10.0001	0.947195	352.532	98.08	104.645	8.57924e-5
-8.00613e-5	0.0281439	-351.529	10.0001	0.998137	359.324	97.83	103.849	8.56358e-5
-5.00806e-5	0.0297282	-593.607	10.0001	1.05191	365.463	97.65	103.082	8.57097e-5
-3.51270e-5	0.0315013	-896.784	10.0001	1.11054	372.165	97.38	102.342	8.56383e-5
-5.80209e-5	0.0335769	-578.704	10.0001	1.17775	378.976	97.16	101.639	8.54388e-5
-4.72158e-5	0.0356088	-754.172	10.0001	1.24832	385.802	96.94	100.974	8.55867e-5
1.42705e-5	0.0377066	2642.27	10.0001	1.31982	392.645	96.70	100.287	8.56472e-5
-5.01986e-5	0.0398875	-794.593	10.0001	1.39525	398.878	96.53	99.8253	8.57140e-5
-3.38881e-5	0.0423595	-1249.98	10.0001	1.47598	405.126	96.29	99.2406	8.55300e-5
-1.42599e-5	0.0450955	-3162.40	10.0001	1.56727	411.921	96.07	98.6642	8.54445e-5
-3.38520e-5	0.0479457	-1416.33	10.0001	1.66526	418.717	95.82	98.1796	8.55034e-5
3.84691e-5	0.0513037	1333.63	10.0001	1.77410	425.514	95.62	97.5703	8.52447e-5
-8.58116e-6	0.0546911	-6373.39	10.0001	1.89340	432.204	95.43	97.1551	8.54274e-5
8.69348e-5	0.0583447	671.131	10.0001	2.01551	438.954	95.17	96.6182	8.53344e-5
6.82122e-5	0.0623295	913.759	10.0001	2.15142	445.794	94.97	96.2156	8.53379e-5
8.02972e-5	0.0669650	833.965	10.0001	2.30396	452.725	94.68	95.7777	8.51298e-5
8.08579e-5	0.0714420	883.551	10.0001	2.46347	459.438	94.49	95.4170	8.53704e-5
8.84623e-5	0.0772894	873.699	10.0001	2.64799	466.224	94.26	95.0034	8.48790e-5
2.18408e-4	0.0822628	376.647	10.0001	2.83361	473.130	94.03	94.6118	8.53832e-5
2.19743e-4	0.0878355	399.719	10.0001	3.02223	479.892	93.81	94.3195	8.53308e-5
2.82564e-4	0.0936562	331.451	10.0001	3.22231	486.786	93.57	94.0132	8.53554e-5
3.03009e-4	0.0995788	328.633	10.0001	3.42982	493.612	93.37	93.7627	8.54670e-5
4.59482e-4	0.107036	232.949	10.0001	3.66777	500.423	93.10	93.4176	8.50680e-5
4.28908e-4	0.115047	268.232	10.0001	3.94242	507.330	92.91	93.1948	8.50918e-5
5.51035e-4	0.123564	224.239	10.0001	4.23247	514.025	92.69	92.9177	8.50717e-5
5.81357e-4	0.131134	225.566	10.0001	4.51348	520.849	92.46	92.7359	8.55010e-5
6.73032e-4	0.139679	207.536	10.0001	4.79868	527.449	92.22	92.5306	8.53535e-5
8.65160e-4	0.149039	172.268	10.0001	5.11468	534.349	92.03	92.2974	8.52758e-5
1.04359e-3	0.161378	154.638	10.0001	5.50516	541.167	91.74	92.0577	8.47795e-5
1.14388e-3	0.175431	153.365	10.0001	5.97215	547.943	91.51	91.8593	8.46137e-5
1.23454e-3	0.185279	150.079	10.0001	6.38217	554.193	91.32	91.7319	8.56263e-5
1.32103e-3	0.196516	148.760	10.0001	6.75546	560.896	91.12	91.6070	8.54605e-5
1.55768e-3	0.209180	134.289	10.0001	7.17563	567.679	90.93	91.4440	8.52808e-5
1.72073e-3	0.226180	131.444	10.0001	7.71208	574.519	90.67	91.2930	8.47744e-5
2.17940e-3	0.246328	113.025	10.0001	8.36564	581.270	90.41	91.0792	8.44421e-5
2.23906e-3	0.265060	118.380	10.0001	9.04743	588.125	90.22	90.9887	8.48741e-5
2.82064e-3	0.294401	104.374	10.0001	9.90847	594.945	89.90	90.7751	8.36983e-5
3.26539e-3	0.316341	96.8769	10.0001	10.8015	601.751	89.70	90.6393	8.49173e-5
3.56710e-3	0.331538	92.9434	10.0001	11.4418	608.624	89.52	90.5566	8.58174e-5
3.91730e-3	0.350701	89.5262	10.0001	12.0537	615.503	89.31	90.4676	8.54704e-5
4.45580e-3	0.373016	83.7147	10.0001	12.7895	622.279	89.08	90.3553	8.52663e-5
5.24649e-3	0.399210	76.0908	10.0001	13.6478	629.096	88.84	90.2167	8.50204e-5
5.57300e-3	0.429850	77.1308	10.0001	14.6523	635.960	88.59	90.1555	8.47671e-5
6.41993e-3	0.466520	72.6676	10.0001	15.8383	642.809	88.36	90.0367	8.44321e-5
7.68997e-3	0.500807	65.1247	10.0001	17.0902	649.679	88.20	89.8864	8.48634e-5
8.62043e-3	0.539837	62.6230	10.0001	18.3920	656.381	87.96	89.7931	8.47261e-5
8.97404e-3	0.577758	64.3810	10.0001	19.7434	663.328	87.67	89.7689	8.49827e-5
0.0105728	0.624873	59.1018	10.0001	21.2239	670.126	87.47	89.6364	8.44655e-5
0.0124727	0.683206	54.7759	10.0001	23.0948	677.009	87.23	89.5040	8.40666e-5
0.0136006	0.740558	54.4503	10.0001	25.1340	683.873	87.02	89.4511	8.43964e-5
0.0159781	0.797618	49.9193	10.0001	27.1262	690.579	86.76	89.3156	8.45776e-5
0.0177748	0.862874	48.5448	10.0001	29.2832	697.282	86.60	89.2434	8.43866e-5
0.0200373	0.937844	46.8050	10.0001	31.7330	704.175	86.32	89.1604	8.41409e-5
0.0227991	1.01485	44.5127	10.0001	34.4009	710.995	86.08	89.0628	8.43000e-5
0.0258710	1.08117	41.7907	10.0001	36.9307	717.849	85.87	88.9527	8.49332e-5
0.0280219	1.16806	41.6840	10.0001	39.6281	724.662	85.63	88.9190	8.43609e-5
0.0323992	1.25755	38.8142	10.0001	42.6914	731.526	85.42	88.7901	8.44074e-5
0.0364420	1.36845	37.5514	10.0001	46.2097	738.244	85.21	88.7111	8.39548e-5
0.0438324	1.50179	34.2621	10.0001	50.4515	745.136	84.92	88.5343	8.35182e-5
0.0509445	1.64381	32.2667	10.0001	55.2963	751.982	84.70	88.4032	8.36324e-5
0.0552497	1.77294	32.0896	10.0001	60.0623	758.887	84.51	88.3712	8.42246e-5
0.0615173	1.89153	30.7479	10.0001	64.3760	765.614	84.29	88.2751	8.46106e-5
0.0695453	2.01043	28.9083	10.0001	68.5745	771.923	84.10	88.1400	8.47893e-5
0.0758995	2.15741	28.4245	10.0001	73.2073	778.690	83.86	88.0875	8.43438e-5
0.0859465	2.32916	27.1001	10.0001	78.6898	785.581	83.65	87.9694	8.39687e-5
0.0961674	2.50424	26.0404	10.0001	84.7450	792.371	83.40	87.8652	8.41120e-5
0.112575	2.70603	24.0377	10.0001	91.3087	799.151	83.15	87.6630	8.38578e-5
0.127404	2.93363	23.0263	10.0001	98.7978	805.939	82.96	87.5389	8.36912e-5
0.140521	3.16353	22.5129	10.0001	106.798	812.845	82.73	87.4640	8.38912e-5
0.162310	3.42400	21.0955	10.0001	115.197	819.538	82.50	87.2743	8.35897e-5
0.183000	3.67536	20.0839	10.0001	124.249	826.302	82.26	87.1207	8.39860e-5
0.204550	3.98165	19.4654	10.0001	133.832	833.064	82.04	87.0108	8.34988e-5
0.234023	4.28811	18.3235	10.0001	144.458	839.198	81.78	86.8095	8.36703e-5
0.263118	4.62340	17.5716	10.0001	155.632	846.158	81.60	86.6572	8.36043e-5
0.301798	4.99240	16.5422	10.0001	167.723	852.945	81.40	86.4350	8.34213e-5
0.345069	5.38697	15.6113	10.0001	181.059	859.807	81.19	86.2090	8.34394e-5
0.392327	5.80484	14.7959	10.0001	195.203	866.612	80.91	85.9869	8.34649e-5
0.436733	6.22944	14.2637	10.0001	209.910	872.802	80.70	85.8229	8.36286e-5
0.498030	6.75162	13.5567	10.0001	225.877	879.684	80.50	85.5903	8.30064e-5
0.580482	7.34467	12.6527	10.0001	244.929	886.597	80.24	85.2636	8.27147e-5
0.659725	8.00000	12.1263	10.0001	266.520	893.352	80.01	85.0398	8.26137e-5
0.770014	8.67974	11.2722	10.0001	289.551	900.173	79.82	84.6555	8.26852e-5
0.880917	9.43539	10.7109	10.0001	314.312	907.155	79.55	84.3598	8.25398e-5
1.02420	10.3093	10.0657	10.0001	341.900	913.835	79.32	83.9844	8.21336e-5
1.17478	11.1752	9.51260	10.0001	372.588	920.595	79.13	83.6221	8.25316e-5
1.35821	12.1129	8.91827	10.0001	403.867	927.282	78.86	83.1881	8.24851e-5
1.59052	13.3107	8.36877	10.0001	439.154	934.195	78.67	82.7249	8.15637e-5
1.81461	14.4269	7.95042	10.0001	480.733	941.048	78.44	82.3267	8.23317e-5
2.10804	15.6978	7.44665	10.0001	521.347	947.860	78.18	81.7983	8.19779e-5
2.46680	17.1648	6.95831	10.0001	567.803	954.607	77.98	81.2126	8.15704e-5
2.82406	18.6531	6.60508	10.0001	619.305	961.351	77.77	80.7251	8.17919e-5
3.23764	20.1828	6.23378	10.0001	671.691	968.020	77.53	80.1630	8.19011e-5
3.71782	21.8242	5.87016	10.0001	726.614	974.845	77.33	79.5472	8.18261e-5
4.25651	23.5708	5.53759	10.0001	785.775	981.753	77.09	78.9133	8.18245e-5
4.88284	25.5359	5.22972	10.0001	849.074	988.423	76.87	78.2515	8.14913e-5
5.60430	27.7026	4.94309	10.0001	920.327	995.089	76.62	77.5595	8.12859e-5
6.41428	29.9893	4.67539	10.0001	998.615	1001.96	76.40	76.8389	8.13363e-5
7.34610	32.3763	4.40728	10.0001	1081.84	1008.80	76.16	76.0400	8.14424e-5
8.41072	35.1666	4.18116	10.0001	1170.39	1015.61	75.95	75.2707	8.09514e-5
9.79295	38.1920	3.89995	10.0001	1272.36	1022.55	75.69	74.2293	8.07853e-5
11.2356	41.3637	3.68150	10.0001	1385.23	1029.33	75.54	73.2988	8.09820e-5
12.6907	44.3347	3.49350	10.0001	1502.96	1035.53	75.28	72.4140	8.17519e-5
14.6787	48.2346	3.28601	10.0001	1616.06	1042.36	75.04	71.3206	8.05096e-5
16.8453	52.0233	3.08829	10.0001	1763.30	1049.31	74.83	70.1684	8.11161e-5
19.3003	56.2732	2.91567	10.0001	1909.45	1056.08	74.60	69.0275	8.08632e-5
21.8261	60.4424	2.76927	10.0001	2072.43	1062.87	74.35	67.9549	8.13967e-5
24.5724	64.6061	2.62921	10.0001	2234.03	1069.76	74.20	66.8381	8.17166e-5
27.6969	68.9980	2.49118	10.0001	2398.24	1076.59	73.92	65.6363	8.17283e-5
31.3230	73.9594	2.36118	10.0001	2574.08	1083.44	73.69	64.3807	8.14046e-5
35.7708	79.7372	2.22912	10.0001	2774.04	1090.19	73.41	62.9721	8.08658e-5
39.9667	84.7953	2.12165	10.0001	3007.68	1097.06	73.24	61.7232	8.19606e-5
44.7263	90.0413	2.01316	10.0001	3217.03	1103.97	73.00	60.3658	8.20032e-5
49.8812	95.5631	1.91581	10.0001	3439.08	1110.78	72.75	59.0309	8.20358e-5
55.3108	101.097	1.82780	10.0001	3674.27	1117.60	72.55	57.7258	8.22799e-5
61.4558	106.887	1.73925	10.0001	3913.76	1124.42	72.34	56.3210	8.22480e-5
68.3886	113.211	1.65541	10.0001	4170.48	1131.27	72.07	54.8766	8.20727e-5
75.8753	119.352	1.57300	10.0001	4452.77	1138.11	71.88	53.3697	8.23410e-5
83.5643	125.394	1.50057	10.0001	4737.83	1144.96	71.67	51.9441	8.26374e-5
90.7199	130.677	1.44044	10.0001	5022.15	1151.04	71.44	50.6905	8.33560e-5
98.4082	135.845	1.38043	10.0001	5277.41	1157.31	71.28	49.3829	8.34761e-5
107.492	142.114	1.32209	10.0001	5538.43	1164.09	71.00	48.0110	8.29504e-5
117.717	148.055	1.25772	10.0001	5848.97	1170.94	70.75	46.4536	8.30524e-5
128.907	154.634	1.19958	10.0001	6169.47	1177.69	70.55	44.9370	8.28819e-5
140.503	160.627	1.14323	10.0001	6519.75	1184.48	70.30	43.4105	8.32175e-5
150.774	165.723	1.09915	10.0001	6861.08	1190.77	70.12	42.1541	8.39398e-5
161.042	170.111	1.05631	10.0001	7157.63	1196.87	69.91	40.9062	8.42732e-5
173.598	175.568	1.01135	10.0001	7438.14	1203.72	69.65	39.5223	8.37149e-5
187.273	180.920	0.966074	10.0001	7780.90	1210.59	69.46	38.0813	8.37111e-5
200.508	185.279	0.924051	10.0001	8138.87	1217.44	69.19	36.7134	8.41724e-5
214.454	189.687	0.884514	10.0001	8467.43	1224.14	68.98	35.3731	8.41809e-5
228.189	193.922	0.849831	10.0001	8807.92	1231.10	68.77	34.1509	8.43826e-5
243.515	197.848	0.812468	10.0001	9140.00	1237.86	68.56	32.8133	8.43008e-5
258.485	201.033	0.777734	10.0001	9493.01	1244.67	68.29	31.5461	8.46019e-5
273.715	204.418	0.746829	10.0001	9824.63	1251.49	68.07	30.3735	8.46391e-5
289.365	206.999	0.715357	10.0001	10162.6	1258.39	67.85	29.1729	8.47919e-5
305.479	209.454	0.685657	10.0001	10493.4	1265.14	67.63	28.0115	8.48359e-5
324.389	211.593	0.652282	10.0001	10829.8	1272.06	67.41	26.6903	8.45859e-5
344.542	213.286	0.619041	10.0001	11210.2	1278.94	67.14	25.3511	8.45822e-5
360.786	214.528	0.594613	10.0001	11603.1	1285.68	66.91	24.3453	8.52357e-5
375.434	215.132	0.573024	10.0001	11916.9	1291.85	66.72	23.4531	8.55643e-5
390.055	215.333	0.552058	10.0001	12192.0	1298.05	66.54	22.5821	8.56515e-5
406.134	215.480	0.530565	10.0001	12460.6	1304.77	66.34	21.6766	8.55229e-5
421.801	215.072	0.509890	10.0001	12753.3	1311.63	66.08	20.8058	8.56737e-5
437.261	214.389	0.490299	10.0001	13031.2	1318.32	65.85	19.9748	8.57601e-5
453.238	213.145	0.470272	10.0001	13300.6	1325.02	65.65	19.1259	8.57767e-5
468.737	211.924	0.452116	10.0001	13572.3	1331.74	65.44	18.3485	8.58678e-5
483.920	211.248	0.436535	10.0001	13834.9	1338.50	65.20	17.6661	8.59066e-5
500.265	209.218	0.418214	10.0001	14096.4	1345.41	64.93	16.8815	8.59045e-5
516.869	207.136	0.400752	10.0001	14364.2	1352.27	64.73	16.1276	8.59135e-5
532.518	204.347	0.383738	10.0001	14634.0	1359.05	64.50	15.4014	8.60783e-5
548.271	202.358	0.369084	10.0001	14881.0	1365.94	64.25	14.7612	8.60576e-5
563.406	199.885	0.354779	10.0001	15135.1	1372.80	64.03	14.1419	8.61675e-5
577.256	196.940	0.341166	10.0001	15373.2	1378.96	63.83	13.5595	8.63311e-5
591.559	193.775	0.327566	10.0001	15586.0	1385.66	63.62	12.9773	8.63165e-5
605.691	190.872	0.315132	10.0001	15803.6	1392.46	63.39	12.4416	8.63411e-5
619.526	187.462	0.302590	10.0001	16019.9	1399.23	63.19	11.9066	8.64037e-5
401.192	-127.133	-0.316888	10.0001	16184.2	1406.12	62.98	-13.8634	1.20578e-4
561.606	133.772	0.238196	10.0001	11799.2	1412.97	62.72	9.78046	6.93292e-5
-227.606	-42.9379	0.188650	10.0001	14903.1	1419.79	62.44	192.537	1.36643e-4
483.252	197.498	0.408685	10.0001	9048.26	1426.65	62.24	16.6928	5.67669e-5
-117.218	350.652	-2.99145	10.0001	13977.0	1433.57	62.02	94.7723	8.94712e-5
608.788	202.127	0.332016	10.0001	13407.7	1440.39	61.80	13.0285	7.26519e-5
-39.6343	-357.491	9.01972	10.0001	16151.2	1447.25	61.58	-83.0468	1.11807e-4
57.2624	-195.044	-3.40615	10.0001	12447.7	1454.06	61.33	-66.7389	1.59037e-4
-40.3032	-108.427	2.69028	10.0001	6854.49	1460.80	61.14	253.703	1.43904e-4
683.965	127.170	0.185930	10.0001	4013.34	1467.72	60.88	7.28107	2.06937e-5
210.781	126.917	0.602128	10.0001	16958.8	1474.51	60.66	26.9414	1.95166e-4
674.686	139.218	0.206345	10.0001	7742.98	1481.22	60.43	8.08525	4.01636e-5
159.269	-113.934	-0.715355	10.0001	16861.5	1487.49	60.19	-31.7756	2.36613e-4
119.475	-136.981	-1.14653	10.0001	6369.73	1494.26	60.02	-44.2280	9.41645e-5
668.116	114.821	0.171858	10.0001	6014.18	1501.03	59.78	6.79402	3.15890e-5
207.505	196.236	0.945694	10.0001	16643.0	1507.91	59.59	37.0465	1.65284e-4
101.268	81.5768	0.805555	10.0001	8896.71	1514.67	59.31	36.0342	1.81450e-4
50.4963	5.25106	0.103989	10.0001	4468.90	1521.61	59.08	5.75011	2.26057e-4
690.739	134.672	0.194968	10.0001	1994.10	1528.41	58.86	7.59979	1.01971e-5
219.713	361.695	1.64622	10.0001	17092.6	1535.23	58.63	47.2002	1.17001e-4
57.9595	157.047	2.70960	10.0001	12775.3	1541.99	58.40	64.1817	1.97802e-4
-64.8063	-78.5206	1.21162	10.0001	5705.16	1548.92	58.20	233.481	1.33715e-4
-54.3244	6.39438	-0.117707	10.0001	3485.83	1555.71	57.94	173.043	1.52936e-4
-5.80893	-20.1838	3.47462	10.0001	1659.33	1562.51	57.73	254.673	1.95721e-4
4.62534	-8.47448	-1.83219	10.0001	704.111	1569.37	57.48	-61.0988	1.81984e-4
779.877	126.637	0.162380	10.0001	474.872	1576.20	57.26	6.11778	2.24795e-6
135.374	-129.204	-0.954426	10.0001	18464.9	1583.07	57.01	-39.2933	2.67563e-4
739.027	97.4143	0.131814	10.0001	6162.80	1589.86	56.82	5.07685	3.03638e-5
229.875	111.356	0.484417	10.0001	17748.9	1596.73	56.57	22.2759	1.98767e-4
737.672	105.324	0.142779	10.0001	7966.17	1603.55	56.37	5.49460	3.92450e-5
707.699	290.979	0.411163	10.0001	17755.2	1610.44	56.14	15.0206	8.46710e-5
223.499	-316.425	-1.41578	10.0001	18317.5	1617.17	55.88	-44.6744	1.36617e-4
258.430	-15.6704	-0.0606368	10.0001	11745.3	1624.11	55.71	-2.97475	1.31575e-4
236.244	-7.52006	-0.0318317	10.0001	7981.69	1630.81	55.46	-1.58262	9.67441e-5
55.1536	-80.4020	-1.45778	10.0001	7399.26	1637.70	55.21	-52.6941	1.95659e-4
39.7001	18.8335	0.474395	10.0001	3433.20	1644.47	54.97	24.7064	1.99330e-4
11.8216	17.3578	1.46831	10.0001	1766.36	1651.36	54.74	55.1234	2.10806e-4
13.8374	8.93458	0.645686	10.0001	940.853	1658.18	54.56	32.5363	1.43371e-4
-9.61337	6.23336	-0.648405	10.0001	839.510	1665.00	54.31	146.828	1.81016e-4
-4.94332	-0.682723	0.138110	10.0001	244.540	1671.90	54.10	187.878	1.21305e-4
