Filename	LLM_EP0904_15%01_Oscillatory temperature sweep_Flow
Instrument name	5333-0626
Operator	liming
rundate	14/05/2025
Sample name	LLM_EP0904_15%01_Oscillatory temperature sweep_Flow
Geometry name	8.0mm parallel plate, UPP Stainless steel  - 119113 new 30 11 22
Procedure name	Sample
	Temperature ramp
	Temperature ramp
	Temperature ramp
	Temperature ramp
	Flow sweep
	Flow sweep
	Flow sweep
	Flow sweep
	Flow sweep
	Flow sweep
	Axial
	Sample
proceduresegments	Temperature ramp#Temperature ramp#Temperature ramp#Temperature ramp#Flow sweep#Flow sweep#Flow sweep#Flow sweep#Flow sweep#Flow sweep#Axial
[step]
Temperature ramp - 1
Storage modulus	Loss modulus	Tan(delta)	Angular frequency	Oscillation torque	Step time	Temperature	Raw phase	Oscillation displacement
MPa	MPa		rad/s	µN.m	s	°C	°	rad
1.01886e-3	1.91667e-3	1.88118	10.0001	0.215354	6.22423	149.77	161.808	8.72354e-5
1.04494e-3	2.05066e-3	1.96247	10.0001	0.215800	13.0716	149.37	160.550	8.71525e-5
1.16664e-3	2.04721e-3	1.75480	10.0001	0.211935	19.9114	149.07	160.195	8.72318e-5
1.26013e-3	2.17091e-3	1.72277	10.0001	0.209911	26.7593	148.92	158.779	8.70363e-5
1.41860e-3	2.31070e-3	1.62887	10.0001	0.206184	33.6924	148.60	156.958	8.68541e-5
1.50005e-3	2.40085e-3	1.60051	10.0001	0.205468	40.3869	148.40	155.837	8.71212e-5
1.63759e-3	2.47158e-3	1.50927	10.0001	0.201682	47.2554	148.14	154.635	8.69284e-5
1.77687e-3	2.59936e-3	1.46288	10.0001	0.199275	54.0164	148.02	152.876	8.69214e-5
1.80760e-3	2.68172e-3	1.48358	10.0001	0.200457	60.9798	147.78	152.000	8.72706e-5
1.94661e-3	2.78715e-3	1.43180	10.0001	0.197214	67.7311	147.57	150.390	8.69399e-5
2.06135e-3	2.79333e-3	1.35509	10.0001	0.194497	74.4957	147.30	149.750	8.72320e-5
2.07993e-3	2.95472e-3	1.42059	10.0001	0.196415	81.4079	147.13	148.229	8.70371e-5
2.27450e-3	2.88310e-3	1.26758	10.0001	0.189590	88.1899	146.85	147.795	8.71644e-5
2.27206e-3	3.15468e-3	1.38847	10.0001	0.194350	95.0399	146.56	145.437	8.69188e-5
2.43498e-3	3.14277e-3	1.29068	10.0001	0.189992	101.844	146.39	144.560	8.71691e-5
2.62001e-3	3.32817e-3	1.27029	10.0001	0.187494	108.638	146.12	141.813	8.66151e-5
2.63453e-3	3.41068e-3	1.29461	10.0001	0.190510	115.557	145.97	141.032	8.73576e-5
2.62643e-3	3.51871e-3	1.33973	10.0001	0.193075	122.350	145.70	140.209	8.73292e-5
2.58614e-3	3.49912e-3	1.35303	10.0001	0.194361	129.280	145.55	140.632	8.76147e-5
2.84364e-3	3.69375e-3	1.29895	10.0001	0.189391	136.082	145.26	137.334	8.64177e-5
2.88693e-3	3.70254e-3	1.28252	10.0001	0.190731	142.803	145.05	136.953	8.74420e-5
2.98275e-3	3.77641e-3	1.26608	10.0001	0.189500	149.654	144.82	135.692	8.71722e-5
3.10624e-3	3.80911e-3	1.22628	10.0001	0.187296	156.460	144.63	134.512	8.71963e-5
3.11038e-3	3.98049e-3	1.27974	10.0001	0.191349	163.349	144.35	133.226	8.71162e-5
3.10378e-3	4.09995e-3	1.32095	10.0001	0.195035	170.166	144.17	132.422	8.73194e-5
3.42981e-3	4.08623e-3	1.19139	10.0001	0.185864	176.979	143.94	129.932	8.67271e-5
3.35711e-3	4.28739e-3	1.27711	10.0001	0.193709	183.894	143.74	129.180	8.70988e-5
3.47448e-3	4.33313e-3	1.24713	10.0001	0.192484	190.642	143.45	127.929	8.71370e-5
3.62573e-3	4.41090e-3	1.21655	10.0001	0.191253	196.982	143.24	126.176	8.70399e-5
3.66342e-3	4.64317e-3	1.26744	10.0001	0.196908	203.758	143.05	124.472	8.69451e-5
3.68660e-3	4.62963e-3	1.25580	10.0001	0.197372	210.613	142.85	124.346	8.75229e-5
3.84384e-3	4.61598e-3	1.20088	10.0001	0.193062	217.417	142.62	123.084	8.71485e-5
3.88058e-3	4.77985e-3	1.23174	10.0001	0.197114	224.325	142.26	121.861	8.71038e-5
4.02818e-3	4.99107e-3	1.23904	10.0001	0.200021	231.115	142.09	119.493	8.67487e-5
4.07709e-3	4.89364e-3	1.20028	10.0001	0.198250	237.368	141.91	119.554	8.76483e-5
4.08463e-3	5.17344e-3	1.26656	10.0001	0.205280	244.222	141.67	118.133	8.70153e-5
4.21536e-3	5.27340e-3	1.25100	10.0001	0.206267	251.041	141.45	116.561	8.70120e-5
4.25901e-3	5.45635e-3	1.28113	10.0001	0.211538	257.895	141.29	115.409	8.70845e-5
4.34608e-3	5.40283e-3	1.24315	10.0001	0.209373	264.671	140.96	114.878	8.74333e-5
4.61421e-3	5.45684e-3	1.18261	10.0001	0.205909	271.497	140.68	112.289	8.68262e-5
4.59760e-3	5.76428e-3	1.25376	10.0001	0.216359	278.264	140.54	111.353	8.69353e-5
4.62482e-3	5.86304e-3	1.26773	10.0001	0.220126	285.106	140.33	110.798	8.72916e-5
4.83119e-3	5.98370e-3	1.23856	10.0001	0.220624	291.951	140.06	108.654	8.68760e-5
4.93517e-3	6.14488e-3	1.24512	10.0001	0.225144	298.755	139.84	107.318	8.69870e-5
5.01898e-3	6.27562e-3	1.25038	10.0001	0.228879	305.591	139.64	106.275	8.70641e-5
5.25220e-3	6.23453e-3	1.18703	10.0001	0.225524	312.431	139.34	104.382	8.71351e-5
5.21131e-3	6.57680e-3	1.26203	10.0001	0.236788	319.297	139.20	104.002	8.68779e-5
5.37345e-3	6.67279e-3	1.24181	10.0001	0.239085	326.076	138.92	102.491	8.70010e-5
5.53595e-3	6.83392e-3	1.23446	10.0001	0.243168	332.887	138.76	100.894	8.68950e-5
5.75160e-3	7.00823e-3	1.21848	10.0001	0.247467	339.850	138.47	98.9177	8.67537e-5
5.76079e-3	7.12257e-3	1.23639	10.0001	0.252797	346.553	138.21	98.7084	8.72551e-5
5.81875e-3	7.46268e-3	1.28252	10.0001	0.262957	353.440	137.98	97.8820	8.68095e-5
5.95543e-3	7.49282e-3	1.25815	10.0001	0.264589	360.183	137.81	96.8190	8.71992e-5
6.20748e-3	7.76794e-3	1.25138	10.0001	0.271396	366.962	137.61	94.7363	8.65885e-5
6.34256e-3	7.87659e-3	1.24186	10.0001	0.276342	373.862	137.36	93.6988	8.70752e-5
6.33910e-3	7.93389e-3	1.25158	10.0001	0.279539	380.609	137.17	93.6936	8.74408e-5
6.37156e-3	8.15914e-3	1.28056	10.0001	0.285997	387.485	136.93	93.3643	8.70212e-5
6.72997e-3	8.22601e-3	1.22229	10.0001	0.286792	394.319	136.62	90.8444	8.66937e-5
6.74513e-3	8.49103e-3	1.25884	10.0001	0.297051	400.641	136.47	90.7137	8.69911e-5
6.91187e-3	8.71512e-3	1.26089	10.0001	0.304657	407.464	136.20	89.6030	8.69364e-5
7.14250e-3	8.89750e-3	1.24571	10.0001	0.310661	414.390	136.02	88.1235	8.67820e-5
7.13449e-3	8.99897e-3	1.26133	10.0001	0.316193	421.173	135.78	88.1995	8.73430e-5
7.30160e-3	9.18562e-3	1.25803	10.0001	0.321534	428.097	135.54	87.1924	8.69461e-5
7.54160e-3	9.53717e-3	1.26461	10.0001	0.333267	434.785	135.37	85.8599	8.66762e-5
7.57096e-3	9.91358e-3	1.30942	10.0001	0.346861	441.594	135.10	85.8466	8.67824e-5
7.79843e-3	9.96847e-3	1.27827	10.0001	0.350581	448.430	134.88	84.5693	8.70635e-5
7.96948e-3	0.0100373	1.25947	10.0001	0.354040	455.294	134.63	83.6434	8.71812e-5
8.19998e-3	0.0104392	1.27308	10.0001	0.365736	462.155	134.36	82.6401	8.64152e-5
8.40285e-3	0.0106797	1.27096	10.0001	0.376394	468.865	134.20	81.7321	8.67343e-5
8.58240e-3	0.0109382	1.27450	10.0001	0.385920	475.695	133.96	81.0051	8.66602e-5
8.66394e-3	0.0112714	1.30096	10.0001	0.398827	482.543	133.73	80.8658	8.68864e-5
9.04329e-3	0.0115577	1.27804	10.0001	0.408978	489.481	133.48	79.2603	8.64597e-5
9.08690e-3	0.0117478	1.29283	10.0001	0.418994	496.193	133.29	79.2245	8.71320e-5
9.32070e-3	0.0118644	1.27291	10.0001	0.423850	503.120	133.04	78.2435	8.69838e-5
9.71618e-3	0.0123332	1.26934	10.0001	0.438540	509.949	132.78	76.9223	8.61360e-5
9.67350e-3	0.0123432	1.27598	10.0001	0.445866	516.774	132.53	77.1215	8.75769e-5
9.83148e-3	0.0130700	1.32941	10.0001	0.464181	523.484	132.38	77.1527	8.61053e-5
0.0102864	0.0131881	1.28210	10.0001	0.474987	530.247	132.13	75.3999	8.66757e-5
0.0102692	0.0136196	1.32626	10.0001	0.490946	537.146	131.92	75.9114	8.69479e-5
0.0104922	0.0138463	1.31968	10.0001	0.499879	543.354	131.66	75.2700	8.68418e-5
0.0111728	0.0141028	1.26224	10.0001	0.511458	550.170	131.47	72.9614	8.62281e-5
0.0112836	0.0145573	1.29014	10.0001	0.531448	556.963	131.28	73.0645	8.68496e-5
0.0113923	0.0148147	1.30041	10.0001	0.542485	563.800	131.13	72.9560	8.70591e-5
0.0119136	0.0155099	1.30187	10.0001	0.563632	570.700	130.79	71.9223	8.59100e-5
0.0123032	0.0157476	1.27996	10.0001	0.580691	577.445	130.55	70.9030	8.66566e-5
0.0123085	0.0160557	1.30444	10.0001	0.594522	584.317	130.34	71.2283	8.71947e-5
0.0125333	0.0166632	1.32951	10.0001	0.612801	591.112	130.18	71.1695	8.65604e-5
0.0128141	0.0169483	1.32263	10.0001	0.627804	597.924	129.86	70.6172	8.69040e-5
0.0134864	0.0173194	1.28421	10.0001	0.644338	604.805	129.65	69.0366	8.63941e-5
0.0139447	0.0175353	1.25748	10.0001	0.659486	611.702	129.39	67.9757	8.67096e-5
0.0142581	0.0182388	1.27919	10.0001	0.684005	618.403	129.22	67.8974	8.64130e-5
0.0145428	0.0185657	1.27663	10.0001	0.701500	625.352	128.96	67.4955	8.68109e-5
0.0146340	0.0192326	1.31424	10.0001	0.725990	632.065	128.76	67.9679	8.70205e-5
0.0150462	0.0195840	1.30159	10.0001	0.740335	638.886	128.58	67.2915	8.67210e-5
0.0155677	0.0199357	1.28058	10.0001	0.758251	645.659	128.35	66.3822	8.66628e-5
0.0157793	0.0213578	1.35353	10.0001	0.800961	652.608	128.08	67.3133	8.60491e-5
0.0164439	0.0210843	1.28219	10.0001	0.811171	659.352	127.83	65.5336	8.70786e-5
0.0165222	0.0217836	1.31845	10.0001	0.831972	666.084	127.62	66.0594	8.68056e-5
0.0172064	0.0219960	1.27836	10.0001	0.846889	672.949	127.42	64.7886	8.66257e-5
0.0175417	0.0227670	1.29788	10.0001	0.875984	679.233	127.23	64.8468	8.66161e-5
0.0177579	0.0230648	1.29884	10.0001	0.893498	686.008	126.97	64.6910	8.70929e-5
0.0183170	0.0238845	1.30395	10.0001	0.920081	692.586	126.73	64.3554	8.63622e-5
0.0186052	0.0246851	1.32678	10.0001	0.952605	699.487	126.45	64.5380	8.66539e-5
0.0191725	0.0250534	1.30674	10.0001	0.973928	706.418	126.24	63.8121	8.67594e-5
0.0193420	0.0257930	1.33352	10.0001	0.999619	713.187	126.06	64.1596	8.67451e-5
0.0204831	0.0260109	1.26987	10.0001	1.01982	719.987	125.79	62.3410	8.63655e-5
0.0204778	0.0272968	1.33300	10.0001	1.06308	726.869	125.64	63.4712	8.66608e-5
0.0211688	0.0281020	1.32752	10.0001	1.09628	733.679	125.36	63.0006	8.64417e-5
0.0224019	0.0286529	1.27904	10.0001	1.13053	740.479	125.12	61.5104	8.62528e-5
0.0224476	0.0295014	1.31423	10.0001	1.16704	747.319	124.85	62.1360	8.69821e-5
0.0230626	0.0311964	1.35268	10.0001	1.21657	754.148	124.63	62.5398	8.60549e-5
0.0238598	0.0315887	1.32393	10.0001	1.25136	760.959	124.44	61.6996	8.67472e-5
0.0240680	0.0316853	1.31649	10.0001	1.26643	767.766	124.27	61.4807	8.73401e-5
0.0248100	0.0327518	1.32010	10.0001	1.29789	774.579	124.00	61.2617	8.64154e-5
0.0260898	0.0339461	1.30113	10.0001	1.35164	781.388	123.71	60.4565	8.61451e-5
0.0260871	0.0341192	1.30789	10.0001	1.37701	788.224	123.55	60.5848	8.74277e-5
0.0276573	0.0358295	1.29548	10.0001	1.42611	795.154	123.31	59.8555	8.56041e-5
0.0276806	0.0370691	1.33917	10.0001	1.48605	801.929	123.07	60.6668	8.69168e-5
0.0285356	0.0377736	1.32374	10.0001	1.51728	808.717	122.91	60.1402	8.66341e-5
0.0288653	0.0393511	1.36327	10.0001	1.56796	815.352	122.67	60.7747	8.64791e-5
0.0292072	0.0395374	1.35369	10.0001	1.59440	822.188	122.37	60.5138	8.73088e-5
0.0308811	0.0409533	1.32616	10.0001	1.63987	829.012	122.15	59.5957	8.58881e-5
0.0310545	0.0422865	1.36169	10.0001	1.70206	835.895	122.01	60.2126	8.68694e-5
0.0319813	0.0441019	1.37899	10.0001	1.75955	842.639	121.70	60.3233	8.62123e-5
0.0334215	0.0454519	1.35996	10.0001	1.82644	849.573	121.52	59.6886	8.62731e-5
0.0343749	0.0466753	1.35783	10.0001	1.88591	856.381	121.22	59.4708	8.65522e-5
0.0352572	0.0481544	1.36580	10.0001	1.94498	863.080	121.06	59.4623	8.65192e-5
0.0363516	0.0488350	1.34341	10.0001	1.98975	869.879	120.81	58.8631	8.67385e-5
0.0372923	0.0504592	1.35307	10.0001	2.04912	876.727	120.53	58.8973	8.64921e-5
0.0377880	0.0526396	1.39302	10.0001	2.12510	883.572	120.32	59.5551	8.65606e-5
0.0385331	0.0537316	1.39443	10.0001	2.17497	890.386	120.12	59.4733	8.67195e-5
0.0404643	0.0550734	1.36104	10.0001	2.23887	897.165	119.89	58.6010	8.62990e-5
0.0407269	0.0576075	1.41449	10.0001	2.32755	904.046	119.62	59.5404	8.66118e-5
0.0413250	0.0587925	1.42269	10.0001	2.37983	910.913	119.45	59.6125	8.68474e-5
0.0435290	0.0604131	1.38788	10.0001	2.44593	917.715	119.26	58.7350	8.60655e-5
0.0443305	0.0618878	1.39605	10.0001	2.52276	924.574	119.01	58.7986	8.67149e-5
0.0457016	0.0645686	1.41283	10.0001	2.61262	931.438	118.74	58.9627	8.62232e-5
0.0462503	0.0663191	1.43392	10.0001	2.69398	938.243	118.56	59.2833	8.68443e-5
0.0484380	0.0695933	1.43675	10.0001	2.79584	945.206	118.28	59.1365	8.57712e-5
0.0499456	0.0699439	1.40040	10.0001	2.86802	951.954	118.17	58.3589	8.68169e-5
0.0503844	0.0730351	1.44956	10.0001	2.95916	958.757	117.85	59.1999	8.65538e-5
0.0526374	0.0745997	1.41724	10.0001	3.03777	965.606	117.60	58.4575	8.63150e-5
0.0539738	0.0771900	1.43014	10.0001	3.14421	972.350	117.40	58.5941	8.64632e-5
0.0558052	0.0796923	1.42805	10.0001	3.24599	979.287	117.15	58.4354	8.63190e-5
0.0553713	0.0822291	1.48505	10.0001	3.34481	985.997	116.94	59.4537	8.71216e-5
0.0587263	0.0842680	1.43493	10.0001	3.42380	992.735	116.71	58.3808	8.60535e-5
0.0600456	0.0877024	1.46060	10.0001	3.56640	999.330	116.52	58.7585	8.64684e-5
0.0618011	0.0908160	1.46949	10.0001	3.68741	1006.22	116.36	58.8194	8.63818e-5
0.0635022	0.0923513	1.45430	10.0001	3.77622	1013.07	116.08	58.4704	8.66807e-5
0.0655892	0.0963583	1.46912	10.0001	3.91007	1019.92	115.79	58.6309	8.61729e-5
0.0659232	0.0984873	1.49397	10.0001	4.02776	1026.79	115.56	59.0416	8.72294e-5
0.0668661	0.103061	1.54130	10.0001	4.14273	1033.55	115.37	59.7831	8.63928e-5
0.0719413	0.106096	1.47475	10.0001	4.28536	1040.46	115.11	58.4670	8.56292e-5
0.0725208	0.110462	1.52318	10.0001	4.47655	1047.23	114.87	59.2646	8.66347e-5
0.0750042	0.112489	1.49977	10.0001	4.57357	1053.98	114.71	58.7857	8.64849e-5
0.0766021	0.117130	1.52907	10.0001	4.73654	1060.80	114.52	59.2219	8.64112e-5
0.0777033	0.120718	1.55357	10.0001	4.88039	1067.62	114.18	59.5860	8.67164e-5
0.0809234	0.126075	1.55796	10.0001	5.06132	1074.43	114.04	59.5602	8.60862e-5
0.0862169	0.132498	1.53680	10.0001	5.30770	1081.26	113.81	59.0737	8.54619e-5
0.0859384	0.137415	1.59900	10.0001	5.53620	1088.13	113.50	60.0731	8.68415e-5
0.0911848	0.139950	1.53480	10.0001	5.65751	1094.90	113.32	58.9219	8.61175e-5
0.0950895	0.145080	1.52572	10.0001	5.86520	1101.85	113.08	58.6864	8.59009e-5
0.0976631	0.156498	1.60243	10.0001	6.22898	1108.61	112.82	59.8689	8.56252e-5
0.100707	0.160888	1.59758	10.0001	6.47511	1115.57	112.68	59.7363	8.64548e-5
0.104477	0.166202	1.59079	10.0001	6.68239	1122.28	112.41	59.5642	8.62263e-5
0.108899	0.170202	1.56294	10.0001	6.89177	1129.08	112.21	59.0481	8.63666e-5
0.110087	0.177022	1.60802	10.0001	7.13252	1135.93	111.91	59.7436	8.65657e-5
0.115451	0.182307	1.57909	10.0001	7.34669	1142.77	111.66	59.2112	8.61067e-5
0.120549	0.188705	1.56539	10.0001	7.62386	1149.57	111.48	58.9237	8.60766e-5
0.123392	0.198400	1.60789	10.0001	7.96764	1156.39	111.35	59.5626	8.61158e-5
0.129417	0.207436	1.60285	10.0001	8.31190	1163.21	110.97	59.4153	8.58044e-5
0.131943	0.212540	1.61085	10.0001	8.59758	1170.06	110.80	59.5130	8.67060e-5
0.136103	0.223096	1.63917	10.0001	8.90431	1176.84	110.58	59.9057	8.58915e-5
0.138007	0.229419	1.66237	10.0001	9.21540	1183.70	110.40	60.2355	8.67331e-5
0.149328	0.237186	1.58836	10.0001	9.50159	1190.50	110.11	58.9982	8.54110e-5
0.145862	0.249197	1.70845	10.0001	9.99774	1196.79	109.86	60.8367	8.71483e-5
0.152005	0.257135	1.69162	10.0001	10.2247	1203.60	109.70	60.5456	8.61230e-5
0.153323	0.267378	1.74388	10.0001	10.6181	1210.34	109.47	61.2758	8.66209e-5
0.161198	0.277938	1.72421	10.0001	10.9766	1217.20	109.21	60.9453	8.58807e-5
0.171020	0.282861	1.65397	10.0001	11.3214	1224.05	108.94	59.8594	8.60997e-5
0.176841	0.294315	1.66429	10.0001	11.7693	1230.84	108.74	59.9795	8.61322e-5
0.182819	0.308989	1.69014	10.0001	12.2891	1237.73	108.56	60.3274	8.59641e-5
0.186918	0.319564	1.70965	10.0001	12.7444	1244.52	108.32	60.5880	8.64193e-5
0.194192	0.327703	1.68752	10.0001	13.0987	1251.38	108.10	60.2323	8.63090e-5
0.205287	0.344316	1.67724	10.0001	13.6541	1258.18	107.88	60.0317	8.54544e-5
0.210546	0.362405	1.72126	10.0001	14.3775	1265.04	107.64	60.6478	8.60128e-5
0.209333	0.370888	1.77176	10.0001	14.8124	1271.94	107.37	61.3545	8.71851e-5
0.223361	0.389442	1.74356	10.0001	15.2920	1278.86	107.19	60.9139	8.53681e-5
0.231471	0.399069	1.72406	10.0001	15.9005	1285.78	106.94	60.6120	8.63660e-5
0.246760	0.421997	1.71015	10.0001	16.6156	1292.48	106.68	60.3659	8.51341e-5
0.248506	0.445752	1.79373	10.0001	17.5932	1299.35	106.47	61.5202	8.63046e-5
0.266549	0.459676	1.72455	10.0001	18.1758	1306.11	106.28	60.5184	8.56278e-5
0.265884	0.477921	1.79748	10.0001	18.9659	1312.98	106.10	61.5247	8.67759e-5
0.283371	0.498573	1.75944	10.0001	19.5951	1319.83	105.80	60.9679	8.54916e-5
0.298920	0.531081	1.77666	10.0001	20.7655	1326.75	105.59	61.1717	8.52169e-5
0.305250	0.535989	1.75590	10.0001	21.4474	1333.48	105.34	60.8745	8.69636e-5
0.319305	0.568977	1.78192	10.0001	22.3016	1340.25	105.17	61.2056	8.54562e-5
0.334490	0.590983	1.76682	10.0001	23.3228	1347.00	104.89	60.9745	8.58560e-5
0.341497	0.610203	1.78685	10.0001	24.2035	1353.68	104.66	61.2364	8.65148e-5
0.359392	0.662020	1.84206	10.0001	25.5601	1360.47	104.53	61.9393	8.47634e-5
0.380440	0.676907	1.77928	10.0001	26.7436	1367.28	104.17	61.0805	8.60443e-5
0.391136	0.698549	1.78595	10.0001	27.6791	1374.09	104.03	61.1583	8.63644e-5
0.414388	0.729873	1.76133	10.0001	28.7245	1380.96	103.79	60.7956	8.54816e-5
0.429597	0.759753	1.76852	10.0001	30.0326	1387.23	103.52	60.8793	8.59321e-5
0.449752	0.790960	1.75866	10.0001	31.2743	1393.96	103.35	60.7240	8.58163e-5
0.465443	0.831028	1.78546	10.0001	32.7363	1400.85	103.17	61.0778	8.57936e-5
0.480482	0.859343	1.78850	10.0001	33.9983	1407.75	102.92	61.1068	8.61904e-5
0.508808	0.892563	1.75422	10.0001	35.2653	1414.47	102.70	60.6147	8.56719e-5
0.523837	0.915226	1.74716	10.0001	36.5158	1421.31	102.42	60.5054	8.64243e-5
0.555499	0.979774	1.76377	10.0001	38.3154	1427.91	102.30	60.7162	8.48842e-5
0.568539	1.00698	1.77117	10.0001	40.0687	1434.76	101.97	60.8103	8.64582e-5
0.592206	1.05214	1.77664	10.0001	41.5127	1441.60	101.75	60.8719	8.57809e-5
0.616870	1.09107	1.76872	10.0001	43.1646	1448.60	101.53	60.7502	8.59097e-5
0.660673	1.13302	1.71494	10.0001	44.8597	1455.24	101.32	59.9706	8.53205e-5
0.679977	1.16558	1.71415	10.0001	46.6929	1462.08	101.06	59.9506	8.63070e-5
0.701904	1.22219	1.74125	10.0001	48.5064	1468.94	100.82	60.3283	8.58317e-5
0.734078	1.28443	1.74972	10.0001	50.7265	1475.71	100.58	60.4348	8.55160e-5
0.766291	1.33423	1.74116	10.0001	52.9517	1482.59	100.40	60.3025	8.58126e-5
0.799122	1.38021	1.72716	10.0001	54.9449	1489.36	100.14	60.0924	8.59061e-5
0.852583	1.46005	1.71250	10.0001	57.5619	1496.20	99.91	59.8647	8.48892e-5
0.890670	1.53076	1.71866	10.0001	60.8046	1502.98	99.66	59.9427	8.56015e-5
0.948400	1.58887	1.67532	10.0001	63.3587	1509.89	99.53	59.2909	8.53684e-5
0.967115	1.63806	1.69376	10.0001	65.9393	1516.75	99.23	59.5599	8.64217e-5
1.04173	1.71922	1.65035	10.0001	68.4285	1523.58	99.03	58.8910	8.48637e-5
1.08200	1.80365	1.66696	10.0001	72.2401	1530.35	98.79	59.1346	8.56174e-5
1.14506	1.86564	1.62929	10.0001	75.0777	1537.16	98.58	58.5443	8.54901e-5
1.18089	1.95277	1.65364	10.0001	78.5618	1543.98	98.35	58.9131	8.58108e-5
1.23559	2.04460	1.65476	10.0001	81.9153	1550.57	98.10	58.9202	8.54720e-5
1.29727	2.13979	1.64945	10.0001	85.7429	1557.39	97.95	58.8287	8.54026e-5
1.37269	2.21734	1.61532	10.0001	89.4957	1564.27	97.63	58.2861	8.55363e-5
1.43303	2.33631	1.63033	10.0001	93.8525	1571.02	97.39	58.5124	8.53513e-5
1.48210	2.42079	1.63335	10.0001	97.8673	1577.93	97.27	58.5524	8.59337e-5
1.55741	2.54000	1.63092	10.0001	101.762	1584.70	96.96	58.5043	8.51235e-5
1.65396	2.65745	1.60672	10.0001	106.872	1591.53	96.75	58.1112	8.51003e-5
1.75181	2.76140	1.57631	10.0001	111.952	1598.36	96.51	57.6090	8.53260e-5
1.82090	2.89093	1.58764	10.0001	117.257	1605.13	96.30	57.7854	8.55407e-5
1.91698	3.04677	1.58936	10.0001	122.999	1612.00	96.06	57.8028	8.51702e-5
2.00245	3.16426	1.58020	10.0001	128.597	1618.80	95.83	57.6453	8.56042e-5
2.09615	3.29785	1.57329	10.0001	133.977	1625.61	95.62	57.5230	8.54655e-5
2.18454	3.42700	1.56875	10.0001	139.597	1632.46	95.39	57.4399	8.56210e-5
2.29481	3.61915	1.57710	10.0001	146.272	1639.25	95.20	57.5664	8.50852e-5
2.40354	3.74503	1.55813	10.0001	152.755	1646.15	94.91	57.2444	8.55813e-5
