Filename	LLM_EP0902_5%01_Oscillatory_temperature_ramp 
Instrument name	5333-0626
Operator	LIMING
rundate	30/04/2025
Sample name	LLM_EP0902_5%01_Oscillatory_temperature_ramp 
Geometry name	8.0mm parallel plate, UPP Stainless steel  - 119113 new 30 11 22
Procedure name	Amplitude sweep
	Temperature ramp
	Temperature ramp
	Temperature ramp
	Temperature ramp
	Sample
proceduresegments	Amplitude sweep#Temperature ramp#Temperature ramp#Temperature ramp#Temperature ramp
[step]
Temperature ramp - 2
Storage modulus	Loss modulus	Tan(delta)	Angular frequency	Oscillation torque	Step time	Temperature	Raw phase	Oscillation displacement
MPa	MPa		rad/s	µN.m	s	°C	°	rad
2.03445e-4	2.14354e-3	10.5362	10.0001	0.0702595	6.16019	109.74	162.136	2.50038e-5
2.58040e-4	2.16066e-3	8.37336	10.0001	0.0696115	12.9568	109.42	161.863	2.49397e-5
2.65940e-4	2.28685e-3	8.59912	10.0001	0.0697298	19.8688	109.22	160.858	2.48644e-5
3.51044e-4	2.44138e-3	6.95462	10.0001	0.0692600	26.7160	108.82	159.425	2.47949e-5
2.29979e-4	2.58990e-3	11.2615	10.0001	0.0713348	33.5432	108.61	158.647	2.49410e-5
3.32726e-4	2.68450e-3	8.06820	10.0001	0.0703668	40.3675	108.51	157.625	2.48121e-5
2.97204e-4	2.80623e-3	9.44208	10.0001	0.0714367	47.2106	108.26	156.831	2.49075e-5
3.23081e-4	3.02795e-3	9.37210	10.0001	0.0718026	53.9876	108.01	155.128	2.48034e-5
3.61946e-4	3.18075e-3	8.78790	10.0001	0.0722417	60.1397	107.76	153.901	2.48495e-5
3.80488e-4	3.30033e-3	8.67394	10.0001	0.0726563	67.6581	107.54	152.988	2.48649e-5
3.09094e-4	3.41581e-3	11.0511	10.0001	0.0740350	74.4259	107.31	152.441	2.49373e-5
4.68584e-4	3.57216e-3	7.62331	10.0001	0.0728217	80.5841	107.11	150.780	2.47501e-5
5.13493e-4	3.80934e-3	7.41847	10.0001	0.0737241	87.2383	106.87	149.005	2.47852e-5
5.02098e-4	4.00000e-3	7.96658	10.0001	0.0749490	94.1137	106.73	147.800	2.48287e-5
5.13113e-4	4.23985e-3	8.26299	10.0001	0.0760676	100.922	106.43	146.233	2.47987e-5
5.84634e-4	4.49916e-3	7.69568	10.0001	0.0767191	107.637	106.21	144.337	2.47230e-5
5.41043e-4	4.68205e-3	8.65374	10.0001	0.0786002	114.332	105.99	143.438	2.48680e-5
6.37627e-4	4.94757e-3	7.75934	10.0001	0.0789342	121.178	105.76	141.487	2.47064e-5
6.31561e-4	5.21598e-3	8.25887	10.0001	0.0809281	127.863	105.55	140.029	2.47855e-5
5.37804e-4	5.42323e-3	10.0840	10.0001	0.0833332	134.564	105.33	139.350	2.48917e-5
6.20253e-4	5.84628e-3	9.42564	10.0001	0.0846317	141.362	105.06	136.839	2.46259e-5
6.50084e-4	6.08463e-3	9.35976	10.0001	0.0865933	148.238	104.86	135.558	2.47806e-5
8.51782e-4	6.34744e-3	7.45196	10.0001	0.0866359	155.074	104.62	133.401	2.46617e-5
7.48211e-4	6.74863e-3	9.01969	10.0001	0.0906032	161.286	104.40	132.142	2.47580e-5
7.23410e-4	6.92904e-3	9.57830	10.0001	0.0924566	168.193	104.23	131.504	2.48513e-5
8.41336e-4	7.38733e-3	8.78047	10.0001	0.0941693	175.026	103.96	129.145	2.45859e-5
8.37946e-4	7.70626e-3	9.19660	10.0001	0.0973221	181.238	103.72	127.979	2.47548e-5
8.89237e-4	8.05855e-3	9.06232	10.0001	0.0996176	187.786	103.54	126.510	2.47089e-5
8.74881e-4	8.36537e-3	9.56171	10.0001	0.102393	194.738	103.27	125.558	2.47638e-5
9.21994e-4	8.78483e-3	9.52807	10.0001	0.105154	201.513	103.11	124.029	2.46681e-5
9.50727e-4	9.22620e-3	9.70436	10.0001	0.108553	208.269	102.87	122.615	2.46463e-5
1.03412e-3	9.82335e-3	9.49921	10.0001	0.112611	214.867	102.62	120.647	2.45266e-5
1.00006e-3	0.0103414	10.3409	10.0001	0.117836	221.740	102.43	119.516	2.46600e-5
1.06853e-3	0.0111099	10.3974	10.0001	0.123074	228.613	102.21	117.510	2.44345e-5
1.15192e-3	0.0117308	10.1836	10.0001	0.128770	235.457	101.96	115.925	2.45517e-5
1.20111e-3	0.0123598	10.2904	10.0001	0.134199	241.557	101.74	114.580	2.45556e-5
1.20665e-3	0.0130732	10.8343	10.0001	0.140306	248.292	101.56	113.363	2.44997e-5
1.29319e-3	0.0139460	10.7842	10.0001	0.147244	255.136	101.24	111.743	2.43912e-5
1.46490e-3	0.0149774	10.2242	10.0001	0.155385	261.975	101.07	109.791	2.42765e-5
1.46425e-3	0.0158154	10.8011	10.0001	0.164628	268.822	100.79	108.821	2.45034e-5
1.42818e-3	0.0165947	11.6195	10.0001	0.172422	275.676	100.62	108.106	2.45587e-5
1.56808e-3	0.0173503	11.0646	10.0001	0.178901	282.497	100.39	106.945	2.45297e-5
1.53686e-3	0.0183644	11.9494	10.0001	0.188267	289.195	100.21	106.148	2.44886e-5
1.66575e-3	0.0192413	11.5511	10.0001	0.196703	296.011	99.95	105.090	2.45452e-5
1.76211e-3	0.0204744	11.6192	10.0001	0.206981	302.843	99.64	103.969	2.44002e-5
1.77907e-3	0.0217608	12.2315	10.0001	0.219546	309.731	99.48	103.128	2.44345e-5
1.90560e-3	0.0228936	12.0138	10.0001	0.230770	316.496	99.26	102.198	2.45033e-5
1.99936e-3	0.0243990	12.2034	10.0001	0.243969	323.379	99.01	101.253	2.43877e-5
2.11317e-3	0.0255427	12.0874	10.0001	0.256384	330.164	98.76	100.514	2.45420e-5
2.09128e-3	0.0269737	12.8982	10.0001	0.269914	337.092	98.54	100.014	2.45074e-5
2.27243e-3	0.0284307	12.5112	10.0001	0.283424	343.838	98.41	99.1535	2.44741e-5
2.29547e-3	0.0297479	12.9594	10.0001	0.297505	350.686	98.10	98.7128	2.45852e-5
2.41684e-3	0.0316607	13.1000	10.0001	0.313632	357.442	97.86	97.9781	2.43974e-5
2.51709e-3	0.0336215	13.3573	10.0001	0.332982	364.303	97.66	97.3498	2.44273e-5
2.63245e-3	0.0357394	13.5765	10.0001	0.353401	371.198	97.42	96.7375	2.44241e-5
2.62269e-3	0.0374177	14.2669	10.0001	0.372058	377.988	97.21	96.4519	2.45728e-5
2.79071e-3	0.0394549	14.1380	10.0001	0.390412	384.835	96.98	95.8803	2.44812e-5
2.87014e-3	0.0417607	14.5500	10.0001	0.412611	391.685	96.74	95.4487	2.44605e-5
3.04627e-3	0.0442380	14.5220	10.0001	0.436326	398.441	96.56	94.9184	2.44377e-5
3.20545e-3	0.0465249	14.5143	10.0001	0.459842	405.191	96.32	94.4828	2.45039e-5
3.34914e-3	0.0492730	14.7121	10.0001	0.485640	412.132	96.03	94.0681	2.44509e-5
3.46241e-3	0.0520605	15.0359	10.0001	0.513435	418.867	95.84	93.7266	2.44762e-5
3.57102e-3	0.0548634	15.3635	10.0001	0.541288	425.103	95.64	93.4236	2.44940e-5
3.63458e-3	0.0582834	16.0358	10.0001	0.573467	432.115	95.40	93.1601	2.44320e-5
3.85791e-3	0.0617911	16.0168	10.0001	0.607505	438.920	95.24	92.7741	2.44211e-5
4.10587e-3	0.0661256	16.1051	10.0001	0.647600	445.723	94.88	92.3785	2.43370e-5
4.18455e-3	0.0704577	16.8376	10.0001	0.692080	452.573	94.67	92.1675	2.44098e-5
4.38280e-3	0.0748337	17.0744	10.0001	0.735385	459.410	94.50	91.8892	2.44259e-5
4.57859e-3	0.0796532	17.3969	10.0001	0.781626	466.271	94.24	91.6342	2.43957e-5
4.79978e-3	0.0845363	17.6125	10.0001	0.830158	473.065	94.01	91.3897	2.44166e-5
4.94332e-3	0.0892080	18.0462	10.0001	0.878496	479.300	93.78	91.2245	2.44868e-5
5.19008e-3	0.0946731	18.2412	10.0001	0.929895	485.473	93.61	91.0038	2.44233e-5
5.33243e-3	0.100528	18.8522	10.0001	0.987364	492.252	93.39	90.8636	2.44218e-5
5.60134e-3	0.106939	19.0917	10.0001	1.04914	499.060	93.20	90.6674	2.43961e-5
5.86705e-3	0.113868	19.4081	10.0001	1.11681	505.822	92.94	90.4928	2.43910e-5
6.22782e-3	0.121191	19.4596	10.0001	1.18837	512.803	92.72	90.2916	2.43837e-5
6.34335e-3	0.128943	20.3273	10.0001	1.26517	519.582	92.44	90.2224	2.44010e-5
6.81943e-3	0.136965	20.0846	10.0001	1.34337	526.415	92.24	90.0095	2.43906e-5
7.06069e-3	0.146229	20.7103	10.0001	1.43257	533.221	92.03	89.9139	2.43637e-5
7.59513e-3	0.156189	20.5644	10.0001	1.52837	540.006	91.81	89.7226	2.43349e-5
7.89176e-3	0.167459	21.2194	10.0001	1.63744	546.862	91.62	89.6389	2.43161e-5
8.34455e-3	0.179472	21.5077	10.0001	1.75498	553.628	91.34	89.5178	2.43182e-5
8.73661e-3	0.193474	22.1452	10.0001	1.88711	560.229	91.17	89.4355	2.42554e-5
9.59230e-3	0.207474	21.6292	10.0001	2.02587	567.035	90.92	89.2363	2.42806e-5
9.78139e-3	0.221111	22.6053	10.0001	2.16724	573.743	90.67	89.2334	2.43729e-5
0.0104515	0.234045	22.3935	10.0001	2.29828	579.878	90.45	89.1108	2.44172e-5
0.0112199	0.249221	22.2123	10.0001	2.44109	586.515	90.24	88.9874	2.43571e-5
0.0117489	0.265786	22.6221	10.0001	2.60281	593.285	90.01	88.9352	2.43498e-5
0.0123223	0.283886	23.0384	10.0001	2.77785	599.934	89.79	88.8862	2.43308e-5
0.0133279	0.304313	22.8328	10.0001	2.97145	606.767	89.55	88.7702	2.42773e-5
0.0137899	0.326767	23.6960	10.0001	3.19065	613.513	89.34	88.7721	2.42772e-5
0.0150841	0.348678	23.1156	10.0001	3.40928	620.089	89.12	88.6352	2.43117e-5
0.0161993	0.372831	23.0152	10.0001	3.64342	626.787	88.92	88.5505	2.42962e-5
0.0174550	0.401514	23.0028	10.0001	3.91129	633.645	88.66	88.4729	2.42172e-5
0.0181130	0.430365	23.7599	10.0001	4.20357	640.336	88.52	88.4856	2.42830e-5
0.0191831	0.461367	24.0507	10.0001	4.50326	647.075	88.23	88.4523	2.42656e-5
0.0210103	0.494983	23.5591	10.0001	4.82621	653.837	88.02	88.3437	2.42398e-5
0.0223154	0.529755	23.7394	10.0001	5.17255	660.722	87.79	88.3088	2.42723e-5
0.0237933	0.569640	23.9412	10.0001	5.54974	667.407	87.54	88.2758	2.42192e-5
0.0253591	0.614372	24.2269	10.0001	5.97697	674.394	87.36	88.2521	2.41819e-5
0.0281988	0.660113	23.4093	10.0001	6.42546	681.159	87.09	88.1237	2.41941e-5
0.0312348	0.708330	22.6776	10.0001	6.89798	687.938	86.91	88.0026	2.42036e-5
0.0335229	0.759160	22.6460	10.0001	7.39932	694.099	86.65	87.9601	2.42248e-5
0.0361248	0.811537	22.4648	10.0001	7.91703	700.858	86.48	87.9044	2.42449e-5
0.0391857	0.872821	22.2740	10.0001	8.48875	707.763	86.19	87.8465	2.41723e-5
0.0419497	0.938985	22.3836	10.0001	9.13169	714.492	85.99	87.8249	2.41686e-5
0.0465866	1.01192	21.7212	10.0001	9.82325	721.394	85.74	87.7142	2.41237e-5
0.0519504	1.09080	20.9969	10.0001	10.5826	728.217	85.53	87.5924	2.41082e-5
0.0571054	1.17980	20.6601	10.0001	11.4282	735.140	85.25	87.5176	2.40698e-5
0.0620012	1.27045	20.4908	10.0001	12.3320	741.896	85.09	87.4677	2.41186e-5
0.0655980	1.36810	20.8558	10.0001	13.2821	748.707	84.85	87.4909	2.41235e-5
0.0744470	1.47613	19.8279	10.0001	14.2914	755.598	84.62	87.3238	2.40529e-5
0.0847586	1.60236	18.9050	10.0001	15.4593	762.486	84.39	87.1575	2.39665e-5
0.0938151	1.72960	18.4363	10.0001	16.7384	769.266	84.13	87.0580	2.40403e-5
0.101798	1.86430	18.3138	10.0001	18.0579	776.067	83.97	87.0159	2.40587e-5
0.116943	2.03337	17.3876	10.0001	19.5406	782.891	83.67	86.8260	2.38669e-5
0.130076	2.21594	17.0357	10.0001	21.3111	789.525	83.47	86.7356	2.38827e-5
0.146924	2.39424	16.2958	10.0001	23.1085	796.394	83.25	86.5636	2.39640e-5
0.163303	2.59196	15.8720	10.0001	24.9908	803.207	83.06	86.4503	2.39374e-5
0.180127	2.79395	15.5110	10.0001	26.9928	809.935	82.79	86.3482	2.39834e-5
0.198191	3.00184	15.1463	10.0001	29.0437	816.611	82.63	86.2423	2.40154e-5
0.225207	3.24038	14.3884	10.0001	31.2290	823.364	82.31	86.0255	2.39174e-5
0.251026	3.50924	13.9796	10.0001	33.7654	830.278	82.15	85.8905	2.38749e-5
0.279186	3.79237	13.5837	10.0001	36.5171	837.110	81.90	85.7528	2.38895e-5
0.310959	4.05165	13.0295	10.0001	39.2473	843.277	81.70	85.5583	2.40281e-5
0.346217	4.36693	12.6133	10.0001	42.0766	849.997	81.44	85.3954	2.38961e-5
0.390735	4.70654	12.0454	10.0001	45.3103	856.082	81.26	85.1636	2.38688e-5
0.440070	5.09973	11.5884	10.0001	48.9290	862.834	81.06	84.9565	2.37829e-5
0.504140	5.53425	10.9776	10.0001	52.9920	869.607	80.88	84.6615	2.37227e-5
0.566424	6.00683	10.6048	10.0001	57.5259	876.464	80.59	84.4566	2.37228e-5
0.654407	6.56994	10.0395	10.0001	62.5291	883.300	80.40	84.1289	2.35650e-5
0.751178	7.16173	9.53400	10.0001	68.2868	890.089	80.14	83.8026	2.35967e-5
0.851703	7.74055	9.08832	10.0001	74.2026	896.949	79.86	83.4859	2.37121e-5
0.942916	8.29142	8.79338	10.0001	79.9913	903.076	79.73	83.2534	2.38555e-5
1.07374	8.99479	8.37705	10.0001	85.9594	909.815	79.47	82.9043	2.36169e-5
1.22413	9.75979	7.97286	10.0001	93.2296	916.570	79.27	82.5311	2.35924e-5
1.43400	10.7377	7.48792	10.0001	101.499	923.497	79.00	82.0337	2.33247e-5
1.61339	11.5394	7.15227	10.0001	110.969	930.289	78.75	81.6492	2.37126e-5
1.83519	12.5536	6.84048	10.0001	119.689	936.983	78.58	81.2514	2.34915e-5
2.09551	13.5960	6.48816	10.0001	129.985	943.639	78.32	80.7659	2.35335e-5
2.40111	14.7451	6.14097	10.0001	140.845	950.474	78.09	80.2344	2.34848e-5
2.74462	15.9799	5.82228	10.0001	152.785	957.281	77.89	79.6902	2.34784e-5
3.11590	17.2794	5.54557	10.0001	165.511	963.410	77.66	79.1644	2.34926e-5
3.48451	18.5293	5.31762	10.0001	178.612	969.635	77.45	78.6887	2.36176e-5
3.95206	19.9355	5.04432	10.0001	191.540	976.295	77.28	78.0729	2.35004e-5
4.49108	21.5592	4.80046	10.0001	206.378	982.896	77.06	77.4579	2.33770e-5
5.07945	23.2282	4.57298	10.0001	223.134	989.815	76.78	76.8277	2.34185e-5
5.68253	24.7891	4.36233	10.0001	240.222	995.954	76.62	76.1935	2.35807e-5
6.39940	26.6075	4.15781	10.0001	256.860	1002.30	76.38	75.5139	2.34444e-5
7.27911	28.7666	3.95194	10.0001	276.291	1009.20	76.14	74.7574	2.32700e-5
8.38767	31.2327	3.72365	10.0001	299.190	1015.98	75.86	73.8344	2.31380e-5
9.56910	33.8662	3.53912	10.0001	325.652	1022.81	75.67	72.9922	2.31613e-5
10.7597	36.2732	3.37122	10.0001	353.439	1028.97	75.50	72.1603	2.33985e-5
12.2531	39.1381	3.19415	10.0001	379.705	1035.66	75.29	71.1941	2.32150e-5
13.7283	41.8318	3.04712	10.0001	410.731	1042.35	75.07	70.3116	2.34150e-5
15.2471	44.4801	2.91728	10.0001	440.223	1048.51	74.84	69.4638	2.35233e-5
17.1571	47.5832	2.77338	10.0001	469.687	1055.39	74.61	68.4452	2.33597e-5
19.3395	50.9742	2.63576	10.0001	504.538	1062.24	74.39	67.3747	2.33132e-5
21.7485	54.5817	2.50967	10.0001	542.916	1069.11	74.19	66.2975	2.33154e-5
24.5310	58.5412	2.38642	10.0001	584.085	1075.83	73.94	65.1467	2.32631e-5
27.6178	62.5135	2.26352	10.0001	629.480	1082.64	73.69	63.9070	2.33334e-5
30.9549	66.7053	2.15492	10.0001	676.330	1089.56	73.47	62.7014	2.33483e-5
34.4549	70.8753	2.05705	10.0001	725.929	1096.37	73.27	61.5241	2.34391e-5
38.3303	75.1559	1.96074	10.0001	775.961	1103.18	73.02	60.2803	2.34649e-5
42.7828	79.7176	1.86331	10.0001	828.491	1110.06	72.82	58.9249	2.34308e-5
47.3583	84.2849	1.77973	10.0001	885.762	1116.25	72.57	57.6604	2.35131e-5
52.7504	89.3307	1.69346	10.0001	943.705	1123.22	72.34	56.2595	2.34268e-5
58.3699	94.3449	1.61633	10.0001	1008.95	1130.06	72.13	54.9104	2.35072e-5
63.8358	98.7701	1.54725	10.0001	1074.62	1136.86	71.90	53.6353	2.37044e-5
70.6455	104.092	1.47344	10.0001	1135.39	1143.74	71.66	52.1731	2.35138e-5
77.7168	109.185	1.40491	10.0001	1208.98	1150.48	71.44	50.7321	2.36102e-5
84.5806	113.930	1.34700	10.0001	1281.95	1157.29	71.30	49.4357	2.37484e-5
93.3410	119.457	1.27980	10.0001	1351.52	1164.17	71.01	47.8519	2.35634e-5
102.042	124.606	1.22113	10.0001	1435.77	1170.97	70.75	46.3848	2.36911e-5
111.092	129.697	1.16747	10.0001	1516.92	1177.85	70.53	44.9669	2.37418e-5
119.634	134.072	1.12068	10.0001	1599.03	1184.58	70.33	43.6795	2.39110e-5
129.026	138.701	1.07498	10.0001	1673.69	1191.29	70.14	42.3608	2.38777e-5
139.412	143.048	1.02608	10.0001	1754.19	1198.01	69.87	40.9112	2.38843e-5
150.266	147.304	0.980282	10.0001	1837.97	1204.87	69.67	39.4913	2.39092e-5
161.125	151.388	0.939570	10.0001	1923.48	1211.72	69.43	38.1732	2.39717e-5
172.082	155.016	0.900822	10.0001	2007.66	1218.55	69.20	36.8836	2.40418e-5
183.493	158.442	0.863477	10.0001	2089.53	1225.41	68.96	35.6013	2.40646e-5
196.285	161.893	0.824783	10.0001	2172.62	1232.24	68.72	34.2327	2.40204e-5
208.402	165.093	0.792186	10.0001	2263.11	1239.04	68.48	33.0362	2.41134e-5
220.726	167.481	0.758773	10.0001	2348.09	1245.86	68.27	31.8009	2.41754e-5
233.636	169.859	0.727025	10.0001	2429.89	1252.76	68.07	30.5919	2.41735e-5
246.205	172.029	0.698723	10.0001	2514.69	1259.53	67.84	29.4860	2.42303e-5
259.884	173.735	0.668508	10.0001	2596.35	1266.24	67.60	28.2934	2.42188e-5
272.430	174.858	0.641847	10.0001	2681.59	1272.96	67.40	27.2271	2.43225e-5
285.409	176.094	0.616987	10.0001	2757.90	1279.76	67.15	26.2070	2.43175e-5
299.303	176.879	0.590968	10.0001	2836.92	1286.62	66.94	25.1315	2.43117e-5
312.771	177.590	0.567795	10.0001	2918.94	1293.47	66.65	24.1549	2.43542e-5
324.767	177.828	0.547556	10.0001	2997.81	1299.65	66.45	23.2980	2.44532e-5
338.598	177.745	0.524945	10.0001	3066.74	1306.55	66.24	22.3332	2.43958e-5
351.909	177.229	0.503623	10.0001	3144.26	1313.43	66.01	21.4198	2.44450e-5
364.993	176.584	0.483801	10.0001	3217.25	1320.27	65.80	20.5614	2.44696e-5
378.751	175.775	0.464091	10.0001	3288.44	1327.10	65.64	19.7000	2.44578e-5
392.837	174.631	0.444538	10.0001	3362.62	1333.84	65.32	18.8424	2.44662e-5
405.967	173.124	0.426449	10.0001	3437.29	1340.78	65.09	18.0490	2.45227e-5
418.501	171.728	0.410342	10.0001	3505.46	1346.90	64.89	17.3359	2.45535e-5
431.258	169.904	0.393974	10.0001	3570.57	1353.66	64.60	16.6126	2.45619e-5
443.454	168.023	0.378895	10.0001	3635.48	1360.41	64.46	15.9442	2.45915e-5
455.519	165.860	0.364112	10.0001	3697.09	1367.36	64.22	15.2897	2.46074e-5
467.745	163.661	0.349894	10.0001	3757.16	1374.16	63.99	14.6579	2.46114e-5
480.089	161.098	0.335559	10.0001	3818.00	1381.02	63.75	14.0226	2.46206e-5
492.475	158.707	0.322264	10.0001	3878.46	1387.89	63.51	13.4286	2.46217e-5
503.910	156.003	0.309585	10.0001	3939.15	1394.68	63.33	12.8674	2.46620e-5
515.538	153.534	0.297814	10.0001	3994.17	1401.48	63.04	12.3424	2.46596e-5
526.366	150.591	0.286096	10.0001	4050.55	1408.11	62.87	11.8262	2.46950e-5
536.668	147.551	0.274939	10.0001	4101.56	1414.93	62.65	11.3367	2.47154e-5
547.498	144.576	0.264067	10.0001	4149.76	1421.79	62.42	10.8572	2.47015e-5
558.456	141.867	0.254034	10.0001	4200.63	1428.52	62.19	10.4122	2.47000e-5
567.969	139.147	0.244991	10.0001	4252.54	1435.28	62.01	10.0146	2.47466e-5
577.849	135.977	0.235315	10.0001	4296.86	1442.13	61.75	9.59278	2.47437e-5
587.421	132.888	0.226223	10.0001	4342.32	1448.96	61.49	9.19678	2.47552e-5
597.492	129.803	0.217246	10.0001	4386.29	1455.63	61.26	8.80497	2.47443e-5
606.036	127.175	0.209848	10.0001	4432.54	1461.87	61.06	8.48251	2.47851e-5
614.354	124.599	0.202812	10.0001	4471.67	1468.58	60.80	8.17677	2.47941e-5
622.942	121.564	0.195144	10.0001	4509.85	1475.43	60.59	7.84666	2.47924e-5
631.302	118.559	0.187801	10.0001	4548.54	1482.12	60.45	7.53137	2.47991e-5
639.540	116.162	0.181634	10.0001	4586.05	1488.82	60.18	7.26387	2.48010e-5
647.016	112.914	0.174515	10.0001	4623.64	1495.63	59.95	6.96293	2.48267e-5
654.890	110.114	0.168140	10.0001	4656.42	1502.45	59.74	6.69110	2.48157e-5
662.787	107.297	0.161888	10.0001	4691.70	1509.22	59.49	6.42512	2.48175e-5
669.857	104.559	0.156092	10.0001	4726.89	1516.11	59.27	6.18038	2.48393e-5
676.561	102.232	0.151106	10.0001	4758.14	1522.32	59.09	5.96897	2.48474e-5
683.086	99.9662	0.146345	10.0001	4787.96	1528.96	58.83	5.76762	2.48523e-5
689.177	97.5580	0.141557	10.0001	4816.86	1535.69	58.57	5.56749	2.48672e-5
695.742	94.4683	0.135781	10.0001	4843.87	1542.63	58.37	5.32835	2.48592e-5
702.619	91.9155	0.130819	10.0001	4872.10	1549.41	58.14	5.12101	2.48499e-5
708.458	89.9504	0.126967	10.0001	4902.26	1555.58	57.94	4.95961	2.48731e-5
713.129	88.3126	0.123838	10.0001	4927.96	1562.22	57.70	4.82910	2.48992e-5
718.703	86.1702	0.119897	10.0001	4948.47	1569.15	57.52	4.66596	2.48807e-5
723.925	83.7521	0.115692	10.0001	4972.72	1575.21	57.28	4.49412	2.48915e-5
730.117	81.5587	0.111706	10.0001	4995.35	1581.89	57.10	4.32930	2.48700e-5
734.726	80.1676	0.109112	10.0001	5022.20	1588.66	56.81	4.22135	2.49034e-5
739.127	78.4618	0.106155	10.0001	5042.41	1595.01	56.61	4.10022	2.49095e-5
744.305	76.2726	0.102475	10.0001	5061.46	1601.96	56.37	3.95053	2.48938e-5
749.240	74.7140	0.0997197	10.0001	5083.62	1608.77	56.20	3.83704	2.48973e-5
753.778	72.3953	0.0960433	10.0001	5104.99	1615.64	55.97	3.68954	2.49084e-5
757.609	70.9688	0.0936747	10.0001	5124.14	1621.74	55.76	3.59332	2.49216e-5
762.497	69.1264	0.0906579	10.0001	5140.66	1628.46	55.54	3.47107	2.48992e-5
766.527	67.7841	0.0884302	10.0001	5161.43	1635.19	55.28	3.38062	2.49175e-5
769.905	65.7345	0.0853801	10.0001	5178.87	1641.93	55.05	3.26013	2.49348e-5
774.464	64.3070	0.0830343	10.0001	5193.05	1648.68	54.90	3.16479	2.49068e-5
778.557	62.7535	0.0806023	10.0001	5212.38	1655.54	54.59	3.06739	2.49181e-5
782.186	61.4972	0.0786222	10.0001	5229.98	1662.37	54.39	2.98780	2.49280e-5
785.915	60.3030	0.0767297	10.0001	5245.40	1669.16	54.17	2.91172	2.49272e-5
788.790	59.7432	0.0757404	10.0001	5261.39	1676.03	53.94	2.87077	2.49430e-5
791.776	57.7439	0.0729295	10.0001	5273.67	1682.84	53.67	2.76127	2.49435e-5
