Filename	LLM_EP0903_10%01_Oscillatory temperature sweep_Flow
Instrument name	5333-0626
Operator	liming
rundate	14/05/2025
Sample name	LLM_EP0903_10%01_Oscillatory temperature sweep_Flow
Geometry name	8.0mm parallel plate, UPP Stainless steel  - 119113 new 30 11 22
Procedure name	Sample
	Temperature ramp
	Temperature ramp
	Temperature ramp
	Temperature ramp
	Flow sweep
	Flow sweep
	Flow sweep
	Flow sweep
	Flow sweep
	Flow sweep
	Axial
	Sample
proceduresegments	Temperature ramp#Temperature ramp#Temperature ramp#Temperature ramp#Flow sweep#Flow sweep#Flow sweep#Flow sweep#Flow sweep#Flow sweep#Axial
[step]
Temperature ramp - 1
Storage modulus	Loss modulus	Tan(delta)	Angular frequency	Oscillation torque	Step time	Temperature	Raw phase	Oscillation displacement
MPa	MPa		rad/s	µN.m	s	°C	°	rad
2.35624e-3	0.0107847	4.57709	10.0001	0.406223	6.25990	109.73	111.097	8.30259e-5
2.45366e-3	0.0112593	4.58879	10.0001	0.415189	12.9031	109.38	109.844	8.19469e-5
2.61686e-3	0.0118756	4.53810	10.0001	0.431524	19.7794	109.10	108.181	8.15620e-5
2.68458e-3	0.0124464	4.63626	10.0001	0.451032	26.5746	108.90	107.114	8.18236e-5
2.81944e-3	0.0131125	4.65076	10.0001	0.470032	33.4034	108.64	105.749	8.15140e-5
2.94492e-3	0.0137387	4.66520	10.0001	0.490655	40.2283	108.45	104.573	8.16569e-5
3.09021e-3	0.0144930	4.68996	10.0001	0.513596	47.0609	108.25	103.302	8.14743e-5
3.21447e-3	0.0151716	4.71978	10.0001	0.536950	53.8247	107.98	102.281	8.17056e-5
3.34335e-3	0.0158944	4.75404	10.0001	0.560336	60.6740	107.76	101.292	8.16766e-5
3.49587e-3	0.0166592	4.76539	10.0001	0.585218	67.6247	107.52	100.277	8.16577e-5
3.63716e-3	0.0174035	4.78491	10.0001	0.610607	74.3740	107.37	99.3942	8.17742e-5
3.72697e-3	0.0182098	4.88596	10.0001	0.637550	81.1290	107.09	98.7112	8.17649e-5
3.91907e-3	0.0190616	4.86380	10.0001	0.664971	87.9608	106.87	97.7596	8.16597e-5
4.05524e-3	0.0199766	4.92612	10.0001	0.696053	94.9135	106.63	97.0248	8.17016e-5
4.21495e-3	0.0209446	4.96912	10.0001	0.728337	101.634	106.39	96.2721	8.16663e-5
4.36104e-3	0.0218888	5.01918	10.0001	0.761348	108.505	106.21	95.6249	8.17811e-5
4.55419e-3	0.0229942	5.04902	10.0001	0.796747	115.358	105.94	94.8798	8.15732e-5
4.74741e-3	0.0241550	5.08804	10.0001	0.836405	122.164	105.75	94.1886	8.15852e-5
4.90566e-3	0.0254112	5.17997	10.0001	0.879258	129.049	105.47	93.6272	8.15820e-5
5.08080e-3	0.0265523	5.22602	10.0001	0.920309	135.760	105.31	93.0955	8.17688e-5
5.30633e-3	0.0277383	5.22740	10.0001	0.960768	142.720	105.04	92.4983	8.17539e-5
5.45676e-3	0.0292098	5.35296	10.0001	1.00938	149.375	104.83	92.0785	8.15916e-5
5.63981e-3	0.0305250	5.41242	10.0001	1.05686	156.300	104.67	91.6448	8.17632e-5
5.89256e-3	0.0320866	5.44528	10.0001	1.10794	162.984	104.40	91.1141	8.15648e-5
6.12429e-3	0.0337252	5.50680	10.0001	1.16491	169.832	104.15	90.6661	8.16011e-5
6.30173e-3	0.0354048	5.61827	10.0001	1.22369	176.657	103.93	90.3463	8.16486e-5
6.58353e-3	0.0372318	5.65529	10.0001	1.28499	183.464	103.66	89.8958	8.15357e-5
6.82898e-3	0.0390213	5.71407	10.0001	1.34923	190.275	103.50	89.5400	8.16823e-5
7.04566e-3	0.0409809	5.81647	10.0001	1.41601	197.161	103.28	89.2596	8.16277e-5
7.33458e-3	0.0430969	5.87585	10.0001	1.48779	203.939	102.97	88.9126	8.15549e-5
7.60486e-3	0.0453956	5.96929	10.0001	1.56669	210.735	102.83	88.6258	8.15149e-5
7.91155e-3	0.0477375	6.03390	10.0001	1.64855	217.357	102.54	88.3258	8.15623e-5
8.19095e-3	0.0505491	6.17134	10.0001	1.74221	224.209	102.37	88.1014	8.13819e-5
8.50114e-3	0.0532873	6.26825	10.0001	1.83879	231.139	102.10	87.8659	8.14718e-5
8.82745e-3	0.0560664	6.35137	10.0001	1.93642	237.904	101.88	87.6376	8.15226e-5
9.16668e-3	0.0591063	6.44795	10.0001	2.04074	244.817	101.63	87.4310	8.14894e-5
9.52717e-3	0.0622397	6.53286	10.0001	2.14998	251.494	101.43	87.2287	8.15152e-5
9.82174e-3	0.0654878	6.66763	10.0001	2.26395	258.292	101.24	87.1085	8.15699e-5
0.0102533	0.0690561	6.73499	10.0001	2.38449	265.151	100.98	86.9004	8.14597e-5
0.0105984	0.0728813	6.87663	10.0001	2.51614	271.765	100.75	86.7917	8.14323e-5
0.0110160	0.0770005	6.98985	10.0001	2.65787	278.637	100.59	86.6532	8.14114e-5
0.0113812	0.0809428	7.11200	10.0001	2.79963	285.392	100.25	86.5584	8.15772e-5
0.0119078	0.0858340	7.20819	10.0001	2.95804	292.207	100.02	86.4030	8.12603e-5
0.0124060	0.0910553	7.33961	10.0001	3.13918	299.090	99.89	86.2960	8.12788e-5
0.0128585	0.0961350	7.47640	10.0001	3.32027	305.840	99.60	86.2224	8.14220e-5
0.0133367	0.101887	7.63958	10.0001	3.51416	312.710	99.35	86.1668	8.13062e-5
0.0138570	0.107926	7.78854	10.0001	3.72281	319.549	99.17	86.1053	8.13092e-5
0.0144997	0.114498	7.89660	10.0001	3.94673	326.384	98.84	86.0074	8.12384e-5
0.0150176	0.121297	8.07702	10.0001	4.18552	333.197	98.72	85.9863	8.13170e-5
0.0155700	0.127963	8.21856	10.0001	4.42057	340.176	98.53	85.9482	8.14092e-5
0.0162183	0.135479	8.35343	10.0001	4.67390	346.852	98.27	85.8990	8.13003e-5
0.0168681	0.144225	8.55014	10.0001	4.96578	353.802	98.00	85.8894	8.11386e-5
0.0176341	0.153110	8.68259	10.0001	5.27496	360.465	97.82	85.8412	8.11823e-5
0.0182286	0.161977	8.88583	10.0001	5.58820	367.288	97.61	85.8582	8.12956e-5
0.0190557	0.171141	8.98107	10.0001	5.90791	374.254	97.35	85.8031	8.13407e-5
0.0197254	0.181550	9.20385	10.0001	6.25952	380.953	97.11	85.8317	8.12386e-5
0.0205314	0.192064	9.35464	10.0001	6.62688	387.742	96.94	85.8191	8.12934e-5
0.0215643	0.204442	9.48055	10.0001	7.03442	394.589	96.75	85.7826	8.10718e-5
0.0224920	0.217624	9.67564	10.0001	7.48995	401.392	96.40	85.7932	8.10905e-5
0.0237317	0.231903	9.77184	10.0001	7.97333	408.300	96.15	85.7456	8.10084e-5
0.0245250	0.245595	10.0141	10.0001	8.47005	415.120	96.00	85.7969	8.12642e-5
0.0257781	0.262430	10.1804	10.0001	9.01157	422.078	95.78	85.7921	8.09090e-5
0.0269566	0.280033	10.3883	10.0001	9.62313	428.831	95.53	85.8146	8.09745e-5
0.0283174	0.298498	10.5412	10.0001	10.2577	435.567	95.28	85.8113	8.09734e-5
0.0296371	0.317338	10.7075	10.0001	10.9151	442.392	95.03	85.8207	8.10484e-5
0.0311370	0.336919	10.8205	10.0001	11.5985	449.387	94.87	85.8075	8.11146e-5
0.0327618	0.360235	10.9956	10.0001	12.3635	456.048	94.68	85.8190	8.08650e-5
0.0341158	0.384264	11.2635	10.0001	13.1949	463.004	94.37	85.8770	8.09186e-5
0.0359828	0.410226	11.4006	10.0001	14.0747	469.733	94.14	85.8757	8.08537e-5
0.0378581	0.437233	11.5493	10.0001	15.0126	476.665	93.87	85.8831	8.09193e-5
0.0398941	0.466163	11.6850	10.0001	16.0021	483.402	93.69	85.8866	8.08999e-5
0.0418896	0.498518	11.9008	10.0001	17.0901	490.179	93.46	85.9220	8.07872e-5
0.0446999	0.531576	11.8921	10.0001	18.2327	497.098	93.21	85.8710	8.08374e-5
0.0466931	0.567871	12.1618	10.0001	19.4721	503.884	93.03	85.9311	8.08106e-5
0.0498267	0.607178	12.1858	10.0001	20.7856	510.798	92.76	85.8965	8.06785e-5
0.0526444	0.650289	12.3525	10.0001	22.2563	517.519	92.56	85.9174	8.06574e-5
0.0562430	0.695988	12.3747	10.0001	23.8146	524.310	92.31	85.8864	8.06391e-5
0.0591970	0.744833	12.5823	10.0001	25.4898	531.194	92.07	85.9255	8.06637e-5
0.0633864	0.798201	12.5926	10.0001	27.2668	537.999	91.84	85.8938	8.05102e-5
0.0677706	0.854979	12.6158	10.0001	29.2171	544.765	91.62	85.8690	8.05341e-5
0.0721196	0.913379	12.6648	10.0001	31.2507	551.699	91.39	85.8564	8.06299e-5
0.0775001	0.978979	12.6320	10.0001	33.4310	558.478	91.24	85.8149	8.04685e-5
0.0826385	1.05083	12.7160	10.0001	35.8577	565.402	90.94	85.8160	8.04153e-5
0.0891341	1.12877	12.6637	10.0001	38.4719	572.150	90.72	85.7701	8.03126e-5
0.0957752	1.20404	12.5715	10.0001	41.1833	578.966	90.52	85.7136	8.05953e-5
0.102610	1.29023	12.5741	10.0001	44.0172	585.879	90.34	85.6906	8.03858e-5
0.110042	1.38081	12.5480	10.0001	47.1250	592.595	90.00	85.6587	8.04098e-5
0.119710	1.48659	12.4183	10.0001	50.5399	599.426	89.83	85.5881	8.00954e-5
0.129711	1.60221	12.3521	10.0001	54.4459	606.328	89.62	85.5410	8.00496e-5
0.142087	1.72846	12.1648	10.0001	58.6702	613.158	89.29	85.4482	7.99623e-5
0.153329	1.84757	12.0498	10.0001	63.0036	619.911	89.19	85.3850	8.03185e-5
0.166050	1.97009	11.8644	10.0001	67.2499	626.785	88.98	85.2940	8.03869e-5
0.180384	2.12296	11.7691	10.0001	72.0473	633.633	88.72	85.2357	7.99209e-5
0.197983	2.28184	11.5255	10.0001	77.4818	640.389	88.50	85.1151	7.99477e-5
0.215281	2.44580	11.3610	10.0001	83.1690	647.265	88.24	85.0264	8.00639e-5
0.238379	2.64093	11.0787	10.0001	89.3945	654.086	87.97	84.8801	7.96796e-5
0.259059	2.84112	10.9671	10.0001	96.3721	660.913	87.75	84.8102	7.98414e-5
0.284342	3.04363	10.7041	10.0001	103.366	667.784	87.55	84.6664	7.99189e-5
0.314751	3.27304	10.3988	10.0001	110.915	674.578	87.35	84.4932	7.97262e-5
0.346445	3.55161	10.2516	10.0001	119.732	681.391	87.10	84.3950	7.93045e-5
0.387360	3.83294	9.89502	10.0001	129.444	688.211	86.82	84.1770	7.94186e-5
0.426369	4.10461	9.62690	10.0001	139.269	694.943	86.64	84.0004	7.97702e-5
0.467911	4.40508	9.41434	10.0001	149.274	701.828	86.43	83.8497	7.96535e-5
0.522037	4.74099	9.08170	10.0001	160.246	708.591	86.18	83.6103	7.94205e-5
0.576260	5.09853	8.84762	10.0001	172.435	715.543	85.93	83.4261	7.94478e-5
0.645954	5.50411	8.52091	10.0001	185.606	722.283	85.67	83.1599	7.91707e-5
0.717592	5.95122	8.29332	10.0001	200.487	729.256	85.52	82.9556	7.90657e-5
0.803761	6.40113	7.96398	10.0001	216.253	736.089	85.26	82.6523	7.92466e-5
0.892446	6.89317	7.72391	10.0001	232.666	742.966	85.02	82.4091	7.91501e-5
0.988911	7.38634	7.46916	10.0001	250.059	749.625	84.80	82.1376	7.93397e-5
1.09919	7.94820	7.23094	10.0001	268.314	756.461	84.56	81.8642	7.90794e-5
1.23483	8.54866	6.92294	10.0001	288.552	763.279	84.36	81.4920	7.90029e-5
1.37555	9.21269	6.69744	10.0001	310.681	770.102	84.15	81.1904	7.88811e-5
1.56527	9.98952	6.38196	10.0001	335.378	776.885	83.90	80.7439	7.84552e-5
1.76534	10.8109	6.12394	10.0001	363.567	783.703	83.67	80.3405	7.85189e-5
1.96703	11.6410	5.91802	10.0001	392.927	790.649	83.42	79.9891	7.87441e-5
2.22490	12.5717	5.65048	10.0001	423.443	797.570	83.19	79.5057	7.84872e-5
2.47410	13.5257	5.46693	10.0001	457.142	804.390	82.99	79.1369	7.86867e-5
2.79478	14.5971	5.22299	10.0001	492.115	811.199	82.80	78.6206	7.83859e-5
3.18883	15.8699	4.97671	10.0001	532.486	818.088	82.50	78.0467	7.78996e-5
3.60334	17.1761	4.76672	10.0001	578.023	824.933	82.29	77.5079	7.80157e-5
4.01985	18.4452	4.58853	10.0001	624.493	831.832	82.11	77.0111	7.83786e-5
4.49635	19.7629	4.39532	10.0001	670.427	838.553	81.86	76.4360	7.84017e-5
5.03949	21.2170	4.21015	10.0001	719.262	845.481	81.63	75.8349	7.82003e-5
5.61335	22.8398	4.06884	10.0001	773.126	852.335	81.39	75.3247	7.79727e-5
6.37929	24.6730	3.86767	10.0001	832.440	859.143	81.20	74.5644	7.75164e-5
7.25331	26.6901	3.67971	10.0001	901.223	865.820	80.93	73.7790	7.73779e-5
8.06081	28.6347	3.55233	10.0001	975.863	872.686	80.70	73.1850	7.79455e-5
8.95735	30.5093	3.40606	10.0001	1047.11	879.467	80.53	72.4727	7.82907e-5
10.0204	32.6660	3.25996	10.0001	1118.87	886.405	80.26	71.6981	7.79110e-5
11.2152	35.1571	3.13477	10.0001	1201.41	893.071	80.06	70.9631	7.75256e-5
12.6355	37.7639	2.98871	10.0001	1295.06	899.951	79.83	70.0565	7.75259e-5
14.0930	40.3398	2.86241	10.0001	1395.40	906.719	79.65	69.2008	7.79126e-5
15.7040	43.2546	2.75436	10.0001	1495.79	913.537	79.38	68.3934	7.76484e-5
17.6392	46.3215	2.62605	10.0001	1607.88	920.365	79.10	67.3847	7.75995e-5
19.7232	49.5989	2.51475	10.0001	1729.21	927.174	78.93	66.4226	7.76099e-5
21.9873	52.8803	2.40504	10.0001	1858.80	934.013	78.69	65.4078	7.78757e-5
24.3739	56.2963	2.30969	10.0001	1990.84	940.926	78.41	64.4470	7.79950e-5
26.9241	59.8159	2.22165	10.0001	2128.16	947.790	78.21	63.4938	7.81177e-5
29.6496	63.4005	2.13832	10.0001	2270.77	954.675	78.02	62.5311	7.82596e-5
32.9159	67.4256	2.04842	10.0001	2418.50	961.368	77.74	61.4262	7.79311e-5
36.5054	71.6067	1.96154	10.0001	2586.43	968.212	77.50	60.2819	7.79941e-5
40.1553	75.8113	1.88795	10.0001	2762.95	975.161	77.29	59.2334	7.82579e-5
43.9035	79.9195	1.82034	10.0001	2940.71	981.859	77.08	58.2126	7.85662e-5
48.2867	84.3740	1.74735	10.0001	3117.66	988.737	76.87	57.0541	7.83672e-5
53.2098	89.1749	1.67591	10.0001	3313.55	995.614	76.64	55.8429	7.82385e-5
58.0195	93.7963	1.61664	10.0001	3526.72	1002.26	76.46	54.7656	7.86619e-5
63.4539	98.5484	1.55307	10.0001	3733.14	1009.13	76.13	53.5644	7.86441e-5
69.5378	103.761	1.49215	10.0001	3952.57	1015.86	76.00	52.3338	7.84520e-5
76.2145	109.121	1.43176	10.0001	4194.27	1022.70	75.69	51.0505	7.84859e-5
82.7408	114.220	1.38045	10.0001	4448.55	1029.56	75.49	49.8933	7.89089e-5
90.2865	119.497	1.32353	10.0001	4693.18	1036.38	75.27	48.5679	7.87918e-5
97.6261	124.743	1.27776	10.0001	4957.99	1043.28	75.04	47.4239	7.90889e-5
105.774	130.004	1.22907	10.0001	5217.67	1050.11	74.83	46.1724	7.90880e-5
114.024	135.017	1.18411	10.0001	5490.23	1056.98	74.57	44.9680	7.93504e-5
122.556	139.912	1.14162	10.0001	5757.61	1063.91	74.34	43.7847	7.95079e-5
131.900	144.924	1.09874	10.0001	6026.10	1070.61	74.14	42.5466	7.94646e-5
140.613	149.460	1.06292	10.0001	6309.57	1076.82	73.91	41.4680	7.98998e-5
150.216	154.143	1.02615	10.0001	6570.61	1083.57	73.71	40.3278	7.98189e-5
160.574	159.004	0.990225	10.0001	6849.13	1090.33	73.47	39.1727	7.97715e-5
170.992	163.595	0.956738	10.0001	7143.50	1097.14	73.21	38.0644	7.99747e-5
182.175	167.752	0.920831	10.0001	7431.75	1103.94	73.05	36.8660	8.00531e-5
193.756	172.339	0.889464	10.0001	7723.21	1110.76	72.82	35.7621	8.00213e-5
205.411	176.466	0.859091	10.0001	8028.70	1117.61	72.57	34.6772	8.02272e-5
217.933	180.425	0.827891	10.0001	8324.92	1124.43	72.29	33.5443	8.02295e-5
230.745	184.444	0.799339	10.0001	8631.73	1131.33	72.08	32.4719	8.02904e-5
243.982	188.005	0.770570	10.0001	8942.81	1138.17	71.83	31.3818	8.04077e-5
257.884	191.362	0.742046	10.0001	9251.51	1144.95	71.63	30.2819	8.04364e-5
271.560	194.528	0.716335	10.0001	9566.56	1151.77	71.42	29.2666	8.06006e-5
284.792	197.190	0.692398	10.0001	9871.90	1158.40	71.18	28.3116	8.08209e-5
299.092	199.321	0.666420	10.0001	10159.4	1165.21	70.99	27.2758	8.08072e-5
314.019	202.031	0.643374	10.0001	10456.1	1172.03	70.75	26.3193	8.07375e-5
329.068	204.019	0.619989	10.0001	10771.0	1178.86	70.48	25.3525	8.08832e-5
343.089	205.638	0.599372	10.0001	11074.8	1185.66	70.34	24.4896	8.11172e-5
357.860	207.205	0.579012	10.0001	11352.9	1192.53	70.10	23.6273	8.10946e-5
373.413	208.159	0.557449	10.0001	11642.3	1199.32	69.81	22.7178	8.11155e-5
386.674	208.859	0.540143	10.0001	11934.8	1206.13	69.79	21.9798	8.14664e-5

[step]
Temperature ramp - 2
Storage modulus	Loss modulus	Tan(delta)	Angular frequency	Oscillation torque	Step time	Temperature	Raw phase	Oscillation displacement
MPa	MPa		rad/s	µN.m	s	°C	°	rad
363.685	205.695	0.565584	10.0001	11573.1	6.26158	70.28	23.1142	8.20617e-5
350.563	204.730	0.584003	10.0001	11718.3	13.1661	70.54	23.8921	8.49127e-5
333.338	202.743	0.608221	10.0001	11465.4	19.8851	70.86	24.9176	8.56315e-5
315.664	200.366	0.634744	10.0001	11122.9	26.7066	71.11	26.0266	8.58412e-5
300.207	198.037	0.659667	10.0001	10764.8	33.4052	71.37	27.0519	8.56163e-5
285.134	195.457	0.685490	10.0001	10444.9	40.1688	71.57	28.0996	8.56852e-5
270.425	192.002	0.710002	10.0001	10125.9	46.9940	71.71	29.1038	8.58601e-5
256.436	189.032	0.737153	10.0001	9798.16	53.7934	72.01	30.1710	8.57811e-5
242.528	185.617	0.765345	10.0001	9487.92	60.4094	72.17	31.2665	8.59470e-5
229.133	182.191	0.795132	10.0001	9170.00	67.2212	72.40	32.3930	8.59741e-5
214.016	177.544	0.829582	10.0001	8858.39	74.0135	72.64	33.6841	8.66435e-5
199.314	172.647	0.866207	10.0001	8491.23	80.8638	72.93	35.0188	8.68083e-5
187.235	168.486	0.899863	10.0001	8125.01	87.7039	73.07	36.2017	8.63154e-5
175.786	163.723	0.931378	10.0001	7818.50	94.4473	73.29	37.3075	8.64694e-5
163.782	158.930	0.970379	10.0001	7509.43	101.248	73.57	38.6058	8.67664e-5
152.323	153.889	1.01028	10.0001	7187.29	108.092	73.77	39.8972	8.68978e-5
141.239	148.674	1.05264	10.0001	6868.19	115.043	74.04	41.2196	8.70598e-5
130.887	143.277	1.09466	10.0001	6550.53	121.736	74.25	42.4958	8.71676e-5
120.740	137.708	1.14053	10.0001	6240.09	128.568	74.48	43.8302	8.74020e-5
112.167	132.707	1.18312	10.0001	5928.32	135.198	74.66	45.0213	8.70284e-5
103.683	127.568	1.23036	10.0001	5655.55	142.064	74.90	46.2833	8.72709e-5
95.2828	122.212	1.28263	10.0001	5379.73	148.958	75.16	47.6144	8.75770e-5
87.2076	116.605	1.33710	10.0001	5099.10	155.850	75.38	48.9455	8.78710e-5
80.5028	111.555	1.38573	10.0001	4817.53	162.553	75.64	50.0882	8.74650e-5
73.6090	106.369	1.44506	10.0001	4571.20	169.381	75.88	51.3932	8.78564e-5
67.0119	101.024	1.50755	10.0001	4317.55	176.212	76.08	52.7005	8.81480e-5
62.0207	96.6832	1.55888	10.0001	4065.52	182.996	76.29	53.7273	8.73000e-5
56.3752	91.5743	1.62437	10.0001	3863.90	189.887	76.52	54.9669	8.82896e-5
51.1519	86.7564	1.69606	10.0001	3630.82	196.655	76.77	56.2291	8.82623e-5
46.3224	81.9362	1.76883	10.0001	3412.18	203.464	76.99	57.4420	8.84584e-5
42.2408	77.5712	1.83641	10.0001	3199.72	210.300	77.18	58.5099	8.81539e-5
38.5950	73.6383	1.90798	10.0001	3011.09	217.141	77.42	59.5617	8.79045e-5
35.0069	69.5760	1.98749	10.0001	2840.53	223.900	77.63	60.6598	8.83024e-5
31.7631	65.6894	2.06811	10.0001	2667.19	230.548	77.87	61.7056	8.83056e-5
28.5096	61.5988	2.16063	10.0001	2503.57	237.420	78.11	62.8253	8.88976e-5
25.6588	57.7547	2.25087	10.0001	2333.93	244.195	78.35	63.8494	8.88329e-5
22.9895	54.1180	2.35403	10.0001	2176.81	250.986	78.57	64.9229	8.88809e-5
20.7424	50.8368	2.45087	10.0001	2028.76	257.698	78.74	65.8654	8.85774e-5
18.6261	47.6301	2.55717	10.0001	1896.68	264.552	79.01	66.8238	8.87659e-5
16.6549	44.4424	2.66843	10.0001	1768.70	271.260	79.23	67.7590	8.90818e-5
14.9557	41.6014	2.78165	10.0001	1643.48	278.110	79.44	68.6368	8.87580e-5
13.3009	38.7847	2.91594	10.0001	1531.50	284.898	79.75	69.5884	8.90754e-5
12.0007	36.3336	3.02761	10.0001	1422.08	291.687	79.93	70.3330	8.85459e-5
10.8290	34.0670	3.14589	10.0001	1328.15	298.470	80.19	71.0635	8.84357e-5
9.59359	31.6565	3.29976	10.0001	1240.06	305.304	80.37	71.9310	8.91684e-5
8.48789	29.3197	3.45431	10.0001	1147.56	312.063	80.61	72.7353	8.93523e-5
7.50061	27.1681	3.62213	10.0001	1058.91	318.863	80.85	73.5301	8.92268e-5
6.64316	25.1959	3.79276	10.0001	977.476	325.846	81.03	74.2702	8.90470e-5
5.91372	23.4188	3.96008	10.0001	903.712	332.691	81.31	74.9379	8.87603e-5
5.28784	21.7737	4.11770	10.0001	837.586	339.444	81.52	75.5241	8.86423e-5
4.69649	20.1951	4.30005	10.0001	776.357	346.390	81.70	76.1447	8.87613e-5
4.14390	18.6692	4.50522	10.0001	717.313	353.105	81.96	76.7819	8.88783e-5
3.70054	17.3783	4.69614	10.0001	661.786	359.740	82.20	77.3268	8.82221e-5
3.35968	16.2695	4.84258	10.0001	614.879	366.544	82.42	77.7245	8.76527e-5
3.01384	15.2095	5.04655	10.0001	574.513	373.425	82.66	78.2264	8.77293e-5
2.64987	14.0181	5.29010	10.0001	533.575	380.169	82.83	78.7783	8.85314e-5
2.33660	12.9761	5.55341	10.0001	490.597	387.118	83.12	79.3173	8.80544e-5
2.08647	12.0277	5.76462	10.0001	453.297	393.810	83.31	79.7228	8.78609e-5
1.85487	11.1176	5.99372	10.0001	419.314	400.730	83.62	80.1297	8.80060e-5
1.63760	10.2894	6.28326	10.0001	386.949	407.567	83.82	80.5936	8.78428e-5
1.46320	9.52408	6.50909	10.0001	357.374	414.335	83.99	80.9350	8.77165e-5
1.31173	8.85220	6.74849	10.0001	330.940	421.105	84.24	81.2693	8.74550e-5
1.17433	8.21699	6.99720	10.0001	307.071	427.426	84.45	81.5926	8.74816e-5
1.03634	7.56172	7.29653	10.0001	283.754	434.238	84.71	81.9514	8.79025e-5
0.923999	7.02795	7.60602	10.0001	261.528	441.032	84.87	82.2897	8.72312e-5
0.829075	6.52194	7.86652	10.0001	242.551	447.919	85.09	82.5588	8.72218e-5
0.740562	6.01036	8.11595	10.0001	224.296	454.697	85.37	82.8039	8.75606e-5
0.661844	5.56851	8.41362	10.0001	206.922	461.554	85.64	83.0721	8.72271e-5
0.602834	5.19882	8.62397	10.0001	191.991	468.286	85.76	83.2550	8.67128e-5
0.545136	4.83748	8.87390	10.0001	178.860	474.897	85.99	83.4591	8.68467e-5
0.483756	4.45571	9.21066	10.0001	165.649	481.708	86.24	83.7137	8.73590e-5
0.429496	4.10910	9.56728	10.0001	152.407	488.631	86.47	83.9635	8.72011e-5
0.391307	3.82058	9.76363	10.0001	140.849	495.358	86.71	84.1006	8.66742e-5
